%OpenBCI Raw EXG Data
%Number of channels = 16
%Sample Rate = 125 Hz
%Board = OpenBCI_GUI$BoardCytonSerialDaisy
Sample Index,EXG Channel 0,EXG Channel 1,EXG Channel 2,EXG Channel 3,EXG Channel 4,EXG Channel 5,EXG Channel 6,EXG Channel 7,EXG Channel 8,EXG Channel 9,EXG Channel 10,EXG Channel 11,EXG Channel 12,EXG Channel 13,EXG Channel 14,EXG Channel 15,Accel Channel 0,Accel Channel 1,Accel Channel 2,Other,Other.1,Other.2,Other.3,Other.4,Other.5,Other.6,Analog Channel 0,Analog Channel 1,Analog Channel 2,Timestamp,Other.7,Timestamp (Formatted),Annotations
0,5.960026017226834,0.395797866665454,5.2395695572837795,3.2516930166589937,4.851025877112967,1.6501782217860779,5.163423130128024,1.1273268704026904,2.9573578753654743,-4.4026175079731615,-2.1508588888804354,-5.7062742896643215,1.8975180926219224,-8.491512600086097,-0.4210510999014332,-6.466447977129361,0,0,0,0,0,0,0,0,0,0,0,0,0,0,0,0,
1,6.145041088785632,2.648621042374316,3.3036435944964637,11.729849123711354,1.7192846081671433,3.0249796285277384,-0.4186094868803636,5.190648516975159,3.292780141263407,-1.6950803920391735,-8.745973583472633,-7.805673291798314,0.456075723687249,-7.187012710441962,-7.042295681329833,-6.804723651118039,0,0,0,0,0,0,0,0,0,0,0,0,0,0,0,0,
2,0.24390255790177662,0.9285795725265871,-0.8482442142186812,8.864765099160778,-2.203584034455048,-2.2718556887730585,-6.002323865932766,6.015046136131893,-3.616743498248013,-0.5659641494998198,-17.892318641073757,-4.711235046179809,-6.133728883974996,-3.969527423503976,0.06435307392625589,-2.8880085348727187,0,0,0,0,0,0,0,0,0,0,0,0,0,0,0,0,
3,-1.5046421220092725,-2.2214823654751115,-5.516141280907178,6.415028702068824,-7.615252471573996,-6.633316384569838,-9.991217254392083,-2.4285692260919376,-10.477382692693709,-2.6873491017702804,-21.154873076918307,2.864779939109468,-9.916558872010825,-1.03701020744883,12.321522260179364,6.346849165255021,0,0,0,0,0,0,0,0,0,0,0,0,0,0,0,0,
4,0.7136202989013327,-5.057921847301614,-5.1911638387318675,6.421950284135718,-6.602337405355186,-4.329879454062464,-5.97647190160707,-8.132511175375285,-9.847974543151764,-0.9414945295470432,-20.870670747403977,10.388507759622371,-9.620291421170037,1.7714802789090527,1.042843253529412,13.77894413894011,0,0,0,0,0,0,0,0,0,0,0,0,0,0,0,0,
5,-5.26160999769894,-11.255547614039756,-6.925786467786253,1.5889204424633192,-3.8872249366671667,-4.649192498590153,-3.5382225198492705,-2.8556059352075778,-6.959044237040956,1.0865426874652684,-16.613270950199436,11.219480935017913,-6.561895053176215,2.349386597481981,-7.557191659352995,8.900230344685651,0,0,0,0,0,0,0,0,0,0,0,0,0,0,0,0,
6,-7.939628479779941,-13.612751425477938,-11.14342406856909,0.5329521589652302,-7.192087295355947,-6.784340701063016,-8.861008627220968,1.8900222751143616,-8.248754939126897,0.7788434810729115,-6.4152777185150995,5.186734635509779,-0.9524433459704511,2.682888531452022,2.208553289560882,6.356095559836923,0,0,0,0,0,0,0,0,0,0,0,0,0,0,0,0,
7,-6.715070932192987,-15.661714302738233,-12.491013382507134,2.6568843483791795,-10.23738819914496,-5.869361995855172,-12.008035287386889,6.730813301584632,-9.402573021400826,-0.2963069371180964,-9.383534436129374,2.5039931507542406,-2.2824906362600856,2.6602773285048826,-0.3029186231824852,15.83058593571832,0,0,0,0,0,0,0,0,0,0,0,0,0,0,0,0,
8,-8.292466895689643,-14.822984951658356,-11.244145008197108,1.4583928514885258,-8.087345508562578,-6.2079800401326395,-9.031486362548208,1.7975374695373318,-9.247841163591218,-1.7516887709791646,-18.071801345438104,2.414227033010519,-3.023502507104922,-0.8506909811339654,-0.755239418936327,11.60003319250003,0,0,0,0,0,0,0,0,0,0,0,0,0,0,0,0,
9,-3.227407932524244,-7.626688409680128,-6.801819633798743,2.5200111631696416,-2.793672358960521,-6.914595434560653,-3.4424042294196795,-11.741529314129409,-5.545340873259981,-4.2364398482931485,-16.152660730115436,-4.679058548989303,3.8197933595896245,-5.987257781163951,13.214378238617495,1.286847882431612,0,0,0,0,0,0,0,0,0,0,0,0,0,0,0,0,
10,4.25360625073111,-4.141752113788215,-1.5268245849715356,8.159242472415798,3.9858256349926933,-2.6583641301893692,4.842965042568011,-2.563191663602879,-2.261780500001013,-2.6912255049730938,-13.302611729140686,-4.3932737613317485,5.6327229499678335,-5.242568266696635,11.349653651073428,1.2673632297208055,0,0,0,0,0,0,0,0,0,0,0,0,0,0,0,0,
11,0.39300435180487625,-5.837893267670495,-7.123751615004807,8.141597008074967,1.3656397010651915,-1.4634124418834347,4.288622521413714,6.505170486016766,-2.7202873059293395,-1.3545262933032813,-14.442470636469613,0.64860389326445,-1.3265965157569006,-4.056422246927466,-1.6234223877523846,-2.4525516240636502,0,0,0,0,0,0,0,0,0,0,0,0,0,0,0,0,
12,-4.022066753642434,-6.52707925873554,-13.866021191217442,4.346031258645297,-4.8127670451526114,-2.1200156618841106,-5.871799800582096,1.2852312104531904,-3.775619459402824,-3.1138157166553135,-18.595665622481523,4.894235690825084,-5.16184132702654,-1.378786280251056,0.01673840854452635,3.3489609097468644,0,0,0,0,0,0,0,0,0,0,0,0,0,0,0,0,
13,-0.0767192327021462,-8.519624417672702,-10.694109575534043,4.242631711737175,-2.8437016439022784,-2.027182577330308,-7.4154346878542015,5.542528598315386,-2.779444154091859,-2.697581671441611,-27.25808425899468,11.492353484287563,-7.048331672212541,3.0955652602061363,0.2924593429100284,13.468820299828181,0,0,0,0,0,0,0,0,0,0,0,0,0,0,0,0,
14,8.456780893790437,-2.6643469567544003,-3.522988430906423,8.947016435700647,3.655397259838651,-1.0116008107488312,4.337347981859011,14.926139382564983,-0.9164080881090584,-1.3713158791627365,-22.525261752145788,6.35436274700497,-7.156379760137341,0.7416965978737551,-3.974541815343457,4.985424764219754,0,0,0,0,0,0,0,0,0,0,0,0,0,0,0,0,
15,2.1318398684723263,0.06522972684049932,-8.060014650876198,9.337941848443236,0.590430047061318,-2.405570599066195,3.8278899908211486,14.866122580041718,-0.633553425688369,-2.685533297852217,-7.75186411774672,0.1420916533262755,-4.037116463267793,-0.7460190387705978,7.932719438782755,5.463610040412442,0,0,0,0,0,0,0,0,0,0,0,0,0,0,0,0,
16,-6.644944320058585,-6.880476837630766,-13.89214495183839,10.845794116703445,-2.99546133196057,-3.276603209268046,-4.249493583428958,7.002514092419091,-3.7666063729761987,-4.299640232850393,-7.458513792037138,6.72531469453007,-4.947042089949832,1.5554318858507656,18.623364216211442,14.472727531821365,0,0,0,0,0,0,0,0,0,0,0,0,0,0,0,0,
17,-1.505477981854554,-11.343121499050753,-9.258592101073162,7.779214431962572,-2.5664265440621676,-2.4701581541149835,0.1138959132238142,2.073793696432219,-3.530555503755707,-5.977029131473316,-10.268945969344912,7.108278494344589,-6.014578484806677,-2.34665767178835,5.812208992481104,4.824504730968627,0,0,0,0,0,0,0,0,0,0,0,0,0,0,0,0,
18,2.251867852346635,-6.771689000221826,-2.8540284997526157,0.7135430015082846,-2.28888884998166,-0.3300789149440959,11.103198089476479,7.688470336865393,0.6262239946647981,-5.943226003907668,-3.4847016872786725,5.7980666084391,-3.09192896974227,-2.6320654121105207,0.07363763636936937,2.8667005015501097,0,0,0,0,0,0,0,0,0,0,0,0,0,0,0,0,
19,-3.374640209418004,-6.051824442361237,-3.3762329879754702,1.7981389020880556,-1.2808271618065277,-0.4400196562642975,9.274601034315424,12.29971413202452,2.3043791730021184,-4.164389711025109,-1.0664919225386456,7.270565058663777,-1.361226266818207,1.2830969528761216,11.196919334123564,8.4354116198848,0,0,0,0,0,0,0,0,0,0,0,0,0,0,0,0,
20,-3.188718321887656,-9.407325682483282,-3.8534640367673774,4.243886170994337,2.5863952618224104,-0.35462052030622004,7.242911195906061,16.987437154540146,3.7803648911525443,-4.965280500354453,-4.156223384670611,4.439211979000731,-0.5509346657449044,-1.6798807867337615,7.000268296348992,3.0382351963959557,0,0,0,0,0,0,0,0,0,0,0,0,0,0,0,0,
21,1.221671847618552,-5.425585602365889,-2.668341998894949,4.20139445403893,3.837015782218934,0.7796808631290233,11.876341981642064,12.640629539015524,4.756998209140463,-2.8704181688851946,6.815721737660283,8.291442514265356,3.1068228398960684,-0.8029268986287974,9.069805365843251,5.461107135349598,0,0,0,0,0,0,0,0,0,0,0,0,0,0,0,0,
22,2.9695421917844183,-1.0168133668937127,-2.3980820458367607,9.550398123911307,4.441974890163766,2.169004522323865,5.9757247247958745,9.910942787694463,4.501839786177044,0.5502399298259064,17.908241417978417,9.985396224396453,3.1279828160605376,1.942727191147398,17.632170108061615,6.821613959742443,0,0,0,0,0,0,0,0,0,0,0,0,0,0,0,0,
23,3.967231468888264,-8.177729207876176,-1.3818912559386014,9.431207683943015,6.737948444020065,2.8071677306262117,0.6230439201751619,15.334860586490565,4.139819758265887,1.6966565904229043,6.542901513078192,7.377542329584315,-0.5465179983431909,1.7302890575213041,2.254199917407888,-1.1543135461528369,0,0,0,0,0,0,0,0,0,0,0,0,0,0,0,0,
24,7.238523114022385,-12.906280664844825,4.348500776369356,5.367511982329276,8.683736650517776,2.753589156583022,7.877102659837011,0.004605088456720807,6.1088460271275125,2.231167589798048,-2.7055927915338316,3.162684010009258,-0.8004041801480923,1.9550997919424589,-6.51530454799655,-4.132062659104661,0,0,0,0,0,0,0,0,0,0,0,0,0,0,0,0,
25,4.4563343348022215,-11.13501468999931,6.408121414166999,2.4342221171941816,7.462481510936868,-0.7936795350039532,7.09994104574529,-9.608384189201736,5.600031807509751,3.221475295774752,4.20465877329795,3.6326805857016495,3.9356870227324237,3.9636975687903373,5.957427439467963,-1.4574413578475442,0,0,0,0,0,0,0,0,0,0,0,0,0,0,0,0,
26,-4.415282163286847,-12.537298918011942,1.9093946644748883,2.7673539420206694,4.4526753631240865,-5.219331171120757,3.829568485345945,1.0900375315957263,2.7397577827113224,0.8068206251410714,2.691995156460038,11.266830911818204,5.063847536415352,5.1605521913784855,11.885371064889355,2.8472662473197294,0,0,0,0,0,0,0,0,0,0,0,0,0,0,0,0,
27,-9.293191236900697,-17.124677470628598,-4.287102888091013,14.158930346321768,-0.30666710093908023,-5.960720227227071,5.588261184468834,-2.289925607868952,-0.22632134832859663,-0.33146970795857555,2.8243661491277976,13.440219157794388,3.956310785682632,6.640263569911028,16.65006152131734,0.333495032226779,0,0,0,0,0,0,0,0,0,0,0,0,0,0,0,0,
28,-6.269945303163354,-16.30981925431726,-8.541897251114506,12.570661033156298,-4.382420240723462,-3.90317533421927,2.948359551129329,-1.1859587768343687,-2.1629870068570654,3.098222237545528,9.389108920037543,18.456318462410465,3.4362283110169045,11.134084282008956,23.724270201615738,1.8363946452232398,0,0,0,0,0,0,0,0,0,0,0,0,0,0,0,0,
29,-2.0102455065448055,-10.469635052910803,-7.996932841635612,-6.438678455958126,-6.2367720383059435,-5.4297255637651745,-1.0565918870629787,4.952177183103515,-2.4543946931882914,5.131359584432403,9.515960757279998,20.36617082007602,5.249607999079217,12.527892931486505,18.822318029689114,3.258927824255607,0,0,0,0,0,0,0,0,0,0,0,0,0,0,0,0,
30,-4.023563199289555,-7.704595048581439,-7.1937291908486145,-7.633186707391076,-8.007051400705052,-8.941439675204123,-4.6546874022561155,-2.816834121313107,0.40929524200086576,-0.19246353001237537,8.442044136408214,-3.4922236113060166,4.110856744633011,0.5670588091676905,5.131484674465042,-17.98196021822657,0,0,0,0,0,0,0,0,0,0,0,0,0,0,0,0,
31,-12.076820543054367,-13.098439075264707,-11.489455038653546,-7.4873448510846,-10.176540180520703,-8.415971016581011,-8.737754005185081,-2.9078107060324356,0.4756650936633662,-1.622285399422232,7.784681568007585,-9.525067351712948,-0.29469441297231924,-5.572562136000492,-1.1627632915961357,-22.93433262061634,0,0,0,0,0,0,0,0,0,0,0,0,0,0,0,0,
32,-20.366603524936494,-28.69301173696283,-17.98717225511902,-15.378853056040583,-13.29921086571818,-11.810941212659742,-14.229211315689724,0.07702646002974234,-3.771728927845338,-2.838777460822989,-7.079676873642846,10.028608381418856,-5.491598957191094,-0.4155693295456899,-1.708515442989789,8.095471668672397,0,0,0,0,0,0,0,0,0,0,0,0,0,0,0,0,
33,-14.693177436847463,-29.194204162495566,-12.73872364335719,-4.143125021146119,-8.030283575565875,-12.500732254378363,-11.801119201200123,-2.950405233508633,-6.645071612442649,-5.668332477402323,-21.043148806967675,12.01399208076106,-9.428021505633396,0.4762077604475259,-1.7267136741257918,9.157658458852051,0,0,0,0,0,0,0,0,0,0,0,0,0,0,0,0,
34,-5.92080006752002,-17.608071953329983,-5.353005684046678,1.062538361086041,-3.0195715764515683,-8.845742157489667,-3.584653010909932,-1.3961020734959675,-0.16412949815552125,-2.0242376076589856,-13.307716671329022,1.1506685481311543,-8.703073151430974,-3.240988627548539,-4.765402347726557,-18.307667585565806,0,0,0,0,0,0,0,0,0,0,0,0,0,0,0,0,
35,-9.37780548935774,-25.101548101683136,-9.634505098443725,-5.790795662529064,-7.947390699440518,-13.554228490573138,-8.491114001256364,7.074818626889908,2.127948514175065,-1.8577124226312796,-0.793456881474631,2.2752511473864128,-5.030706294963506,-1.3501536327953372,-7.343788282314309,-10.346339743829049,0,0,0,0,0,0,0,0,0,0,0,0,0,0,0,0,
36,-17.925210010908444,-38.621669719403286,-20.933460443752637,-9.829979082803874,-13.540693589881442,-22.04335822104835,-21.41157068307757,4.726424354506435,-3.29176028679581,-8.746320044971776,-5.030796912784982,4.865906644163227,-5.205005308924303,2.0964161449332117,-2.814007306206662,4.803933757719371,0,0,0,0,0,0,0,0,0,0,0,0,0,0,0,0,
37,-18.44094590492253,-36.50606480356677,-30.564605373678262,-12.300305186873658,-13.774397266335342,-21.4198880983254,-18.526205384250346,-12.34813081927203,-5.214453308649688,-11.05461857007628,-12.3804606818181,2.386266582049032,-4.6961488485020695,2.746250235160794,12.019036096465726,5.506578955120354,0,0,0,0,0,0,0,0,0,0,0,0,0,0,0,0,
38,-14.964069621617824,-30.870259906304597,-34.5244087755472,-9.06103301844854,-12.150270104918661,-18.079060385317746,-13.423855799760872,-15.424346744403067,-6.418767799173359,-11.984354561072593,-14.044247514473568,-0.16114522025122824,-5.735123748599953,1.2243626399094438,18.54281784746707,7.4565971955860775,0,0,0,0,0,0,0,0,0,0,0,0,0,0,0,0,
39,-13.110664116075753,-26.075549312414353,-35.735927092334904,-5.07480107113696,-9.357687040674222,-15.517114962620667,-17.10703037089945,-0.5819512133084572,-7.1122683079425,-11.94049788526921,-16.19848478208607,-8.448124916365813,-10.310590428879266,-1.3833208836103523,14.460770621912822,-4.925456851388052,0,0,0,0,0,0,0,0,0,0,0,0,0,0,0,0,
40,-16.182826962820798,-25.843491714932085,-44.89497980337558,-5.491514039930308,-11.591213072353753,-14.595889023230782,-21.829811754487338,-3.3673175871080048,-7.544202541528598,-9.816328682826367,-21.225258914743463,-16.385826081750025,-13.14074466485313,-2.2519174061673226,14.821965760224096,-9.230413555518215,0,0,0,0,0,0,0,0,0,0,0,0,0,0,0,0,
41,-23.749498777037246,-31.967762939819195,-54.626721048879816,-11.478705128693107,-14.701390326980885,-16.307869584728806,-27.637128129333973,-18.38853349697972,-13.56727787276246,-12.380944743712163,-31.167373160345093,-17.831957647692633,-17.909071994681653,-5.8867826496026225,2.33822839801401,-5.084466728392362,0,0,0,0,0,0,0,0,0,0,0,0,0,0,0,0,
42,-26.168212511712184,-36.73361377972843,-57.07277061937704,-22.16447570081783,-14.493305947583679,-17.898687802397447,-31.372921994346896,-22.83408656188704,-18.123466173616066,-17.186039735864355,-32.388572626614916,-19.65543933951912,-21.60093202829613,-10.124050351576926,-5.076874151556211,-9.656473226583143,0,0,0,0,0,0,0,0,0,0,0,0,0,0,0,0,
43,-16.101029415314017,-28.565891060627806,-51.99016638520596,-17.081551751128295,-9.620125907616796,-15.031800660568628,-22.6988822545313,-19.543069878288925,-15.950123295251572,-19.95823524126169,-22.221094979583654,-26.775409215444597,-23.188072588583523,-13.224723313928664,-3.3312111562418494,-15.08200734787066,0,0,0,0,0,0,0,0,0,0,0,0,0,0,0,0,
44,-16.106005876845188,-24.283045642172496,-53.212883429721614,-14.630709082490782,-11.335561477157654,-16.96411674924815,-19.967447247468463,-21.54695268081114,-15.278639480430016,-22.71921811161525,-18.546155584559628,-33.25381933672318,-25.832084269486202,-20.79945252592813,-22.474265059854943,-29.075276644499322,0,0,0,0,0,0,0,0,0,0,0,0,0,0,0,0,
45,-17.63041724045462,-21.920358703588114,-55.82320846958799,-19.132716934423105,-14.080648846680642,-16.617594659365714,-23.494156200702186,-21.739010075052242,-19.244428194189936,-24.1094969673769,-20.110233564097825,-26.67677562276927,-25.671239904580233,-23.038074616089602,-30.00667446971427,-28.555637568860952,0,0,0,0,0,0,0,0,0,0,0,0,0,0,0,0,
46,-12.400577392994638,-15.371082437000908,-53.91537929343579,-17.369054044875693,-12.528693543927787,-13.02292263460518,-24.025186061108368,-21.52984980292006,-21.73092123440408,-21.61335160575851,-19.6000165732259,-20.198300465478667,-23.23776439388415,-19.032145534949066,-18.765698396176347,-18.937982386075685,0,0,0,0,0,0,0,0,0,0,0,0,0,0,0,0,
47,-14.121736747442725,-21.645224669125888,-54.64509261816461,-21.126164127718447,-14.501753203780027,-14.277027715672745,-24.710391202631577,-25.718349731544222,-19.256396076071027,-21.847512986749393,-21.02295368910859,-27.09660588044531,-23.102685538686046,-21.25420799053802,-23.526328643007204,-29.439940121158532,0,0,0,0,0,0,0,0,0,0,0,0,0,0,0,0,
48,-17.46698456691115,-29.29721637568296,-52.688018483072156,-23.4934059496032,-16.89587006988938,-14.372854110739485,-21.928294578786755,-22.82767113597389,-19.109855566066145,-22.461140108491875,-14.920967043319877,-28.30439829961057,-19.645143773824273,-21.106521335997698,-20.88339333954147,-32.88299266356561,0,0,0,0,0,0,0,0,0,0,0,0,0,0,0,0,
49,-13.96935551213015,-18.585846436928584,-44.362730825233186,-19.074692463871393,-14.00256803937608,-9.652073083028164,-14.872256025607925,-15.890696537015153,-18.999487788841435,-20.011956520857083,-7.955735699102306,-25.34154498231007,-16.274158287416512,-17.2346013803121,-14.894791527505987,-23.851878490788064,0,0,0,0,0,0,0,0,0,0,0,0,0,0,0,0,
50,-16.412223966325925,-15.261527225555255,-46.53822904379687,-22.205781803728925,-16.470206767964086,-9.468415751773207,-16.56417460701219,-23.80030316092676,-18.882093258279795,-15.525290510021193,-7.1473453745492606,-21.842494478119676,-14.459444665363321,-13.56704873464787,-24.99331030825263,-24.322868391856,0,0,0,0,0,0,0,0,0,0,0,0,0,0,0,0,
51,-27.377645093055747,-24.879057450176717,-56.4239200838999,-23.733057048893627,-26.69144033004011,-11.918536059966655,-28.010198840344984,-25.458863294210992,-21.259278097503156,-14.127363612108482,-2.950875488717017,-18.105218090112317,-8.711255355739027,-10.799053321130586,-5.398604599773776,-19.727564507493085,0,0,0,0,0,0,0,0,0,0,0,0,0,0,0,0,
52,-25.824316936108232,-19.27350841128566,-49.83155614766173,-16.909410817135083,-26.762079763069124,-5.942237580817903,-29.22698594614222,-9.121004914764583,-22.25846220511619,-11.138344988372125,3.44352613445281,-14.357511398599627,-2.8336230918136067,-5.995568209779364,21.561153812012854,-10.2184611758253,0,0,0,0,0,0,0,0,0,0,0,0,0,0,0,0,
53,-18.835343122185975,-11.656185246483872,-38.299739858792464,-15.843340863662206,-19.576992955265112,-0.5466048687949581,-20.213786088851535,-14.552080346212023,-17.649173431523266,-4.997224487041791,-0.2756472485298218,-1.84057589586304,-6.588408720780251,1.8144581430389053,-5.053069951545339,-4.100281037047404,0,0,0,0,0,0,0,0,0,0,0,0,0,0,0,0,
54,-22.3815786918326,-12.8455470546902,-35.67906599728771,-18.364642695998597,-19.104306003268817,-2.1739190553866052,-14.67729893467586,-22.447971374813733,-14.290814046281582,-1.1021997970463673,0.8793205325636109,13.339355227334721,-6.109241568399099,10.709646241403732,-18.377629167094227,10.361001831891063,0,0,0,0,0,0,0,0,0,0,0,0,0,0,0,0,
55,-19.60204353584342,-4.528834131314312,-29.76122478132254,-14.264023448921392,-17.23477138936957,-2.276234614473111,-6.3987622451847415,-10.81331548977019,-10.626831607644803,-3.4107213270090853,18.20022173058649,5.047484195141848,3.8727552269886942,8.982836317819725,9.41425849642416,9.451207990750712,0,0,0,0,0,0,0,0,0,0,0,0,0,0,0,0,
56,-9.382000379251053,5.285485151598209,-23.336740282139317,-7.219914338046351,-11.65498107665303,1.5086866691796388,2.1100583091800615,-12.08751768958632,-7.060695949295159,-3.4602840666288586,32.49786283770585,-5.19615567391093,9.489299252688276,3.571203059675227,19.49597011103035,-4.0019964206096965,0,0,0,0,0,0,0,0,0,0,0,0,0,0,0,0,
57,-7.306992412193409,5.676320903262905,-15.3360306449662,-6.390247615705363,-8.953798791905058,6.579382106834544,1.377449957519275,-11.984089300880441,-5.098198779845482,1.0555214589877124,31.047806800456506,5.301283423209256,7.767635193363873,8.00584790120767,8.41107148596248,7.266820417345467,0,0,0,0,0,0,0,0,0,0,0,0,0,0,0,0,
58,-7.891653283971493,5.2566129168663736,-2.51232076118481,-9.77290312929091,-7.121358410068183,8.244279358214158,2.168757457108768,0.27652628167203375,-3.100762308931337,4.493167761351744,33.13146944596224,10.0017032581265,11.059796346289037,13.179935131911677,6.286242236153653,13.190671423637871,0,0,0,0,0,0,0,0,0,0,0,0,0,0,0,0,
59,-9.166925036628356,2.496715393408067,-3.684691363944637,-11.193276252489909,-9.041874917473592,4.3636026770222145,3.340435481612559,1.6161227138394452,-2.7799936572579664,2.4641914002454155,38.48510139666365,3.2592056032590206,15.47177488459833,11.401527134139023,26.35421575888597,6.460696074808259,0,0,0,0,0,0,0,0,0,0,0,0,0,0,0,0,
60,-2.966145443070644,9.288332802069334,-2.150593307720527,-2.4027340499108334,-4.00805213702418,10.455111264027721,5.194042457995863,0.12910890663013674,-3.8822496487415923,1.7445941386825972,33.785068258687275,9.326207750044077,13.284985319276096,13.012353482239302,36.60831312526592,17.748357403114856,0,0,0,0,0,0,0,0,0,0,0,0,0,0,0,0,
61,5.141680638406569,23.755483685213562,11.919789825976522,8.592030733145975,3.791823677415863,20.255013730040076,12.634578509946635,2.5249190874803276,1.0598173567668283,6.69567757237105,30.18389642825987,15.004237943368668,9.812783030120109,13.515887344203016,6.578094675565296,16.381065072086095,0,0,0,0,0,0,0,0,0,0,0,0,0,0,0,0,
62,3.300366749545873,27.178382925047543,15.761623565622017,6.243555825354747,1.4190030962700462,19.413125635747548,18.321707953011327,6.343907374657434,5.5097671430202695,9.840451757705573,35.84653539729997,10.636876464550049,9.932405435584755,10.827499061199,-11.764485908190416,6.270007161967637,0,0,0,0,0,0,0,0,0,0,0,0,0,0,0,0,
63,-3.4919550627842852,17.458603702088084,7.127424338189087,-5.142936149296958,-4.224454485420949,12.092852558044441,10.769824212384748,1.0546583106368246,2.787640677994375,5.583453224742428,35.60437246012942,10.066092546096968,10.957857686880715,12.820490729681659,9.33170093344387,16.9426779120109,0,0,0,0,0,0,0,0,0,0,0,0,0,0,0,0,
64,-5.3085155067144285,10.487370829973003,5.6051455784540565,-5.8920152095501805,-1.0855802124947616,9.900914934696544,3.955469054386711,-1.3145068912711508,-0.017357025138480253,0.0555508701296219,25.671390036126738,9.940339640401547,11.112240132586862,12.667645896331337,29.82864422421207,18.833952650405532,0,0,0,0,0,0,0,0,0,0,0,0,0,0,0,0,
65,-2.4943761294079536,14.402646978743832,11.934795613288244,-0.5206690414691764,3.2412963417514646,13.569114440058087,8.428706678928776,10.83765777841667,1.9818233147314999,2.026846048396081,16.386149061587886,9.991203101471555,6.6380158296174585,8.10393903940961,10.394283376932052,5.77598429851051,0,0,0,0,0,0,0,0,0,0,0,0,0,0,0,0,
66,3.0197025152657915,21.51086553976137,19.378419385330957,5.031673384437482,3.953429194678179,17.84993370056722,15.965921361599328,13.726441347949574,4.37879285829348,6.751898302048389,17.752210584236877,12.87408013875428,0.5575547597824624,6.95717695235075,-22.301303659582445,3.0154761097071905,0,0,0,0,0,0,0,0,0,0,0,0,0,0,0,0,
67,1.3688953956147714,15.36714779211512,22.312741314650374,2.597682445600185,2.0119655219653225,13.484548079903313,15.529676612582861,4.549598968595987,5.025399277394499,4.23885035296442,33.143285734238475,9.877487767910111,6.5982029327683165,7.8077357570919474,-3.167533223063785,14.113265605570366,0,0,0,0,0,0,0,0,0,0,0,0,0,0,0,0,
68,2.6355948477107916,15.397593668563815,25.85696998864666,-1.0899017456503088,7.581884315452633,12.094833576372253,18.31757139204001,13.587160123490605,8.64438934844975,1.4046088932804537,42.223230708690465,5.280699574933038,17.02238789032512,7.888537615868813,24.79596192526145,20.53983573146119,0,0,0,0,0,0,0,0,0,0,0,0,0,0,0,0,
69,6.214415037865912,25.56759958556882,24.930198773519713,3.211977154839893,12.774069672423884,16.686216935102404,20.157656295588595,19.632013459192,12.271568850090858,6.017540805857877,36.52270948993866,6.934301894357276,17.49260951049618,9.23228741923289,9.964721305546405,12.838246486958615,0,0,0,0,0,0,0,0,0,0,0,0,0,0,0,0,
70,2.4490844682069532,26.25084021241007,20.895388037586706,-0.9927262636100824,9.724698958755575,15.993576448502925,13.201210507792055,-0.7662814779841911,11.465778519169135,6.92086862049085,28.534305135089852,6.47632032174883,13.151449465998425,8.049676846911908,-2.4591244307801645,10.729198812985365,0,0,0,0,0,0,0,0,0,0,0,0,0,0,0,0,
71,-2.109400438552897,19.47657301367292,23.682609677024537,-12.640777350515226,6.812490444246416,11.154116525579708,11.328554366182649,-12.187892534572354,8.908487843298744,4.263178313867314,27.45409237161266,3.6844365073005463,15.108730733986633,7.401228360577136,13.889482334939473,16.695470239825916,0,0,0,0,0,0,0,0,0,0,0,0,0,0,0,0,
72,-5.060992232572303,12.970200799826813,20.9671179892874,-13.303403670066285,2.078967197058631,7.294009588868285,14.118684175990616,-0.9707890711280598,7.821597015404308,5.307378321649892,25.269374272532332,5.530692948812316,15.843708982183045,11.06086259739827,21.36839487489638,20.23904497791883,0,0,0,0,0,0,0,0,0,0,0,0,0,0,0,0,
73,-8.537959260366819,10.517908334655779,11.81955742152482,-12.095143099582842,-4.67588283747606,5.259988721722834,11.568418954861826,-3.1609688023665825,4.9390270303845085,8.409122890057702,19.52664807747962,11.121549579330491,12.6703915037929,14.293588451442588,6.222005998827697,17.303516273879204,0,0,0,0,0,0,0,0,0,0,0,0,0,0,0,0,
74,-2.686690264439804,20.27806724415639,24.90340380580861,-10.561930763425039,2.771216449907641,8.874253160768461,13.68750882543894,-13.589800442334685,5.5670133094698,7.97156528805273,17.026654404494792,8.089873361745674,12.487148854469723,10.969649060619403,-0.880561629531428,8.616235348977625,0,0,0,0,0,0,0,0,0,0,0,0,0,0,0,0,
75,3.8472728340690594,27.240433120614526,39.657264046154495,-8.427281214587438,11.8324182786899,8.968413309158038,15.302181355952754,-10.492787857582556,7.588799414881905,8.353313558175287,15.220278142571644,4.486289467388389,13.474923424584105,9.356457926290446,-2.557995504317546,3.769725373457367,0,0,0,0,0,0,0,0,0,0,0,0,0,0,0,0,
76,-6.143911000572373,18.166161451542095,25.008269646321764,-14.318241652352782,0.8736475631289835,-1.7047511606550643,7.805861655600495,-12.023524336430583,5.806685311926827,7.306944789704147,13.612416933352321,4.656642256903609,10.713378174288763,8.526253424323798,-11.391592853183042,0.9452324155225931,0,0,0,0,0,0,0,0,0,0,0,0,0,0,0,0,
77,-13.725381284609114,14.108816137911248,12.6877288504013,-19.781638175873198,-9.023848185511127,-5.875098513988291,5.070136012456544,-13.206724774745823,1.872367472258162,3.7842335891233887,22.949820802981108,2.7152531938236564,14.254201512657062,7.87445214407785,5.694658687131906,6.1353178953924985,0,0,0,0,0,0,0,0,0,0,0,0,0,0,0,0,
78,-0.9072769618143752,19.33573209922497,20.835917762619687,-19.592118323928645,-1.2799327800412357,2.9173892805753354,10.841139919205915,-4.267160322023443,2.921638830561321,2.9627928577988456,25.90527370657648,-0.38369232766577,19.098591343574455,8.780126564420286,22.93771110311554,14.913524425814142,0,0,0,0,0,0,0,0,0,0,0,0,0,0,0,0,
79,2.1507983958047987,15.573922315895544,24.678803046546292,-19.73679860169335,1.8241708487815345,4.590496714418407,12.204735489251732,-5.553113849472197,5.044898822091724,7.111875346060145,18.028318659354007,3.746480271197882,16.413527065519645,8.353579673843342,5.338851623404992,8.257174336124956,0,0,0,0,0,0,0,0,0,0,0,0,0,0,0,0,
80,-8.187629716940421,13.728694330082789,20.849231776651834,-17.468921954688852,-0.38675467929351726,1.8855769715520978,8.529243070872752,-6.455359284391449,4.439151842450315,7.081253913657029,13.313151521919309,10.017239544335574,13.239139991763174,6.649730951706097,3.5702176065023217,9.343301463877083,0,0,0,0,0,0,0,0,0,0,0,0,0,0,0,0,
81,3.10215379945825,24.635671254952115,30.130143956108526,-6.856056739313914,11.317626656255442,11.65164164783394,11.830867370129084,3.1394214229712816,6.860594207923775,9.412103262836808,12.580150632800265,11.524809468054158,13.881214815804903,7.862296522670796,16.341799530186808,14.223765052536804,0,0,0,0,0,0,0,0,0,0,0,0,0,0,0,0,
82,10.99915877930718,25.694883013148683,39.45560466023795,-0.08553038728464912,15.519581047056874,13.581989297586745,14.0069450273825,1.5947445306278496,11.235957411080054,14.922864333666483,10.465298820855335,9.988720790192435,9.426829371513364,6.9262088605561445,0.4159753155342423,0.3961993893116418,0,0,0,0,0,0,0,0,0,0,0,0,0,0,0,0,
83,1.058472900002755,17.91669348554879,34.73434592954004,-5.278527247463728,6.099921213724542,4.723201936312819,12.49209876545794,-5.131694637007513,6.780740415510515,11.349611009876543,9.428914938288557,6.677890174382669,5.373687602507138,4.2644518552767305,-5.539104782119136,-6.011668805157477,0,0,0,0,0,0,0,0,0,0,0,0,0,0,0,0,
84,1.8834255668386675,17.27736282321817,32.51556368227344,-12.7290744935205,4.020621441261483,3.4154102451029758,14.314471856978969,-7.987345945455758,3.9515039765061135,4.881522120062545,10.262440762032526,-3.9550411166066777,5.887188116836519,0.4971007585312712,-1.294619394780188,-8.951075467948883,0,0,0,0,0,0,0,0,0,0,0,0,0,0,0,0,
85,13.700837423321389,26.550766819568793,43.287227013323076,-7.434801707079799,13.0822427246747,7.795281726571943,19.083197126746086,-5.6645594658011476,6.858751831971993,5.368905489350613,9.74845872289908,-5.492003755038972,6.100760839702595,-0.6723752024547522,-14.812454208490191,-15.053422105903397,0,0,0,0,0,0,0,0,0,0,0,0,0,0,0,0,
86,19.522290976701782,31.226629744983228,49.458529078956644,-7.22195794447714,18.714983218566374,6.654046333999958,20.022398508418433,-3.823131375685975,8.338531997529916,5.117705986042637,6.737517212364757,1.179009358977929,6.027431775663501,1.058580184863402,-19.505831974312756,-7.508539231537476,0,0,0,0,0,0,0,0,0,0,0,0,0,0,0,0,
87,24.8932370116288,32.71319464253307,50.169504189606386,-13.08244511426058,19.334665514293988,6.312356131451594,22.26653605334603,-3.6953271700344317,9.556047041812967,1.4322894900553536,4.3363106184729645,-7.4075945826495655,5.065977917841714,-2.4336884175707993,-14.798916503788668,-9.878615221339025,0,0,0,0,0,0,0,0,0,0,0,0,0,0,0,0,
88,27.06046667263766,37.49616640305284,46.97345686467601,-4.044445224650332,17.760941262881914,9.815199313352736,22.437647713508426,0.5347322603200269,10.859663227290532,1.796958878427489,-0.09999925650170383,-12.210603318593996,3.5169788533340522,-3.4991036432347187,-18.377488177648246,-17.66863746087013,0,0,0,0,0,0,0,0,0,0,0,0,0,0,0,0,
89,25.085983321756302,37.161856619179105,42.30844545532682,2.0166758405040497,17.411373001404883,11.581169345129723,20.032261679186902,4.809588726388199,12.492539307240435,6.055893670161467,-4.78088853229724,-3.226187779460574,3.36524787444111,1.1991490705316465,-21.399431821934705,-8.998674937971115,0,0,0,0,0,0,0,0,0,0,0,0,0,0,0,0,
90,20.865701638137296,27.67638797578907,45.62357986053809,-9.658786788220638,15.50522009135733,5.878263789855794,21.073652628024533,1.6975651003244536,12.724477592165812,7.083000289313347,2.04242092863727,-1.9854140687945545,3.847202386966657,1.354479974724299,-16.350269946992313,-5.653478462608806,0,0,0,0,0,0,0,0,0,0,0,0,0,0,0,0,
91,20.49747409733847,27.53196000232164,51.284521062441755,-9.79926606607755,15.28528010766378,4.543984631174936,25.472926242873683,0.32684205801014343,9.666186178690126,5.331317636705435,11.459491207440607,-1.70016424256292,4.660710407690303,2.3962106470076208,-9.523503748905313,-4.046988696202435,0,0,0,0,0,0,0,0,0,0,0,0,0,0,0,0,
92,25.11443632657481,35.695037618489096,52.77417826074516,2.2990566448068464,17.935738544801332,9.897429727946204,25.702384210909564,0.5875589416227527,9.565048279129101,6.101835418495014,11.033035399330174,0.7646177960054672,7.564871928745333,6.433067484680123,-0.6667730535705516,0.4625170044241802,0,0,0,0,0,0,0,0,0,0,0,0,0,0,0,0,
93,25.10937558538152,34.89908786116034,53.35649194498007,5.130079739420548,19.319400411546948,8.846552023457107,23.368654882533185,-0.88000172312465,12.91922190258056,7.42839020260287,7.281885204174785,-1.3425517622676466,7.789880794021855,5.877553526762753,3.4716860495290973,-2.6440858224698705,0,0,0,0,0,0,0,0,0,0,0,0,0,0,0,0,
94,18.466626649686575,24.366380013423033,42.69438055674588,-3.4564694244730614,14.48856053903812,0.663698357065126,21.164667210679433,-1.5114511890460243,10.5403201310191,7.174285452158955,6.53109571890073,1.1242615754345309,5.55213438784763,5.532359723910815,-4.342900388457679,-4.96835950860126,0,0,0,0,0,0,0,0,0,0,0,0,0,0,0,0,
95,12.599013651175653,18.65251842636104,32.94813257330224,-6.978416896974242,7.517641674025276,-2.4626515285957074,20.061353558968303,-1.3744857139552025,7.213851718764602,4.002848439808844,5.300075150257101,-2.4218109802746426,4.41892926929782,3.0312621562408566,-7.033416783868731,-10.43050773111787,0,0,0,0,0,0,0,0,0,0,0,0,0,0,0,0,
96,3.0591880470724853,18.741695584856732,27.75825155528524,-2.667098697814641,2.577638638854637,-0.1970904048812656,17.324524125368633,-4.071449746113402,5.688127150946116,2.5710191139195757,4.679747446628426,-9.099522795651296,5.30087358313196,0.9116659427728706,0.5855284307981492,-13.650584342896614,0,0,0,0,0,0,0,0,0,0,0,0,0,0,0,0,
97,6.522994161226052,26.256748144558266,28.337153241763176,1.9406213855928556,6.048762022957824,4.356315754867701,18.65090085612342,-1.2074834931295158,5.263327475303257,3.476318196043465,4.3789007064310965,-5.546249005642153,5.534867613448625,3.5238113711624663,-2.693504083630671,-6.3172819651877,0,0,0,0,0,0,0,0,0,0,0,0,0,0,0,0,
98,17.383765006667552,27.865959711561253,45.66568237835094,-0.7856924100765426,12.615262752867629,1.5780660844764043,18.562067369976162,0.836637289184182,7.173060369914012,5.13800824874285,4.245231654242971,-3.0575574678856583,5.913193844232396,4.629232167287213,-10.767852175244442,-10.570846512265948,0,0,0,0,0,0,0,0,0,0,0,0,0,0,0,0,
99,9.337100982209876,13.879023041015259,44.587905085375496,-11.851406961039572,7.820522856441087,-8.389492148079313,9.816637434261835,-10.639928036717038,7.519727489991425,3.296543580068132,-2.5421518523562696,-10.107959398723551,4.670614011016525,0.6840135397154938,-12.53043927878197,-19.77655623706349,0,0,0,0,0,0,0,0,0,0,0,0,0,0,0,0,
100,6.00962116298453,14.535902303757695,25.75478256296674,-10.801665022236904,-0.35660121827480395,-5.46495732678035,7.459734993890763,-14.63458317594717,0.8763479661776756,0.7484456241602544,-5.436902071619016,-10.99223737971468,3.1069238406749093,-0.04023150652022878,-14.152301768025126,-13.025135236420624,0,0,0,0,0,0,0,0,0,0,0,0,0,0,0,0,
101,17.91593690341672,29.275580566757867,30.385329806580003,3.986644644200041,3.4097994213163076,8.651678761236795,13.646551213821695,-4.98642273661315,-1.6281891583881674,3.927444631893337,6.809972595032093,-6.543479425297434,4.505416607075858,2.46479626485592,-12.593828788216612,-10.68003681833741,0,0,0,0,0,0,0,0,0,0,0,0,0,0,0,0,
102,20.941296221725437,29.103024770861538,34.39768373894239,5.0443598035481045,10.332816586528267,11.147051223765558,14.633594401928647,1.609759894864112,3.328896149144157,11.775768537129835,14.910282972606012,-1.2386655083569025,9.605833646818141,7.6365823378333175,-5.329612413366448,-14.282689383221168,0,0,0,0,0,0,0,0,0,0,0,0,0,0,0,0,
103,18.405194710246235,26.580128655723797,30.23862678548474,-2.768546607840676,11.15098355743936,3.078871532816791,11.302223249723596,4.424728887252556,6.969687262292197,10.199466375859352,7.458584097007709,1.4921704505081408,8.661540329186487,8.873399086277331,-4.826148340245759,-9.727154416781705,0,0,0,0,0,0,0,0,0,0,0,0,0,0,0,0,
104,20.10930805321786,29.79013818597346,38.4778655512696,1.4664847592446222,12.64212370988929,2.792230893620143,12.424531207171015,-0.11748448898850938,7.290307187296413,5.118959178306383,5.734040270485416,0.5079036237526822,6.5661245682181075,5.332976373383481,-6.4349278337659435,-10.745768915002731,0,0,0,0,0,0,0,0,0,0,0,0,0,0,0,0,
105,19.493608139879,28.40226090992985,36.352954169311175,11.363609012553383,13.049626051911105,6.904944046548479,13.234555986703214,-4.069242641995999,10.368825982534467,7.945668239787146,4.866381460340616,0.4133478282345706,7.3922798315664515,3.1920507640865807,-11.960911986256395,-14.889335425844083,0,0,0,0,0,0,0,0,0,0,0,0,0,0,0,0,
106,19.957146090130664,31.42879976383304,28.96267388810014,16.703412516882054,11.843073986216638,5.256960690130796,12.047206196942682,2.1661437672934767,9.734214537833484,9.279665509824317,-4.576211680843846,0.7227468898742089,5.226003067449664,2.2768630678086623,-19.3719974855329,-14.802515175115357,0,0,0,0,0,0,0,0,0,0,0,0,0,0,0,0,
107,21.383850700998096,31.365874854258493,34.391417505509935,9.738198934730235,12.07915684152573,0.45222148016247843,11.41272461452624,-0.06817634894784419,7.362799455169778,5.0308025669199985,-12.15651356876786,-3.662468684736977,2.369659491432861,0.662378011822156,-16.403001377089005,-15.327652270478222,0,0,0,0,0,0,0,0,0,0,0,0,0,0,0,0,
108,19.159291887353305,26.98754998287012,37.84943712238457,3.596590332069127,10.938972255681108,3.615232994917619,9.08796369331526,-3.78838312068396,7.492470704339647,6.286009411896311,-10.283367150253103,-7.367112439099297,2.572454112788538,-0.09989371977536265,-13.431823375824699,-18.78719695634994,0,0,0,0,0,0,0,0,0,0,0,0,0,0,0,0,
109,13.30616834376093,24.821012193941584,28.859478642688288,8.702451384560902,0.8609198987028037,7.317712704857001,7.150646125903052,1.3398573108236462,4.939242657165494,6.492610659633861,-4.302389417347705,-10.686122120459082,-0.28694130215839664,-3.388724434122725,-17.07681305987943,-21.846961110342516,0,0,0,0,0,0,0,0,0,0,0,0,0,0,0,0,
110,18.939070003360513,29.904802143883416,33.043142105136496,18.973413342510284,2.522993869245198,7.574505705289766,14.751758390888995,9.1404986287519,2.782946284148167,3.6363177747584103,-4.768276836144359,-8.647974744008017,-2.7604265556621286,-1.3281048809834246,-13.976478610021374,-11.714825447113741,0,0,0,0,0,0,0,0,0,0,0,0,0,0,0,0,
111,29.49289087162194,39.32188654206095,45.49558330018637,25.25323022646063,20.811526836468374,10.433480199016586,20.069144227539795,12.248173294302987,6.3066699144916285,4.462210823968199,-10.350300550218961,-0.4999710147632044,-2.8932007513847395,4.98822408146053,-12.961029832928425,1.0192030003963506,0,0,0,0,0,0,0,0,0,0,0,0,0,0,0,0,
112,30.45196064578063,41.423933796792795,41.79578334629393,24.33552936369692,26.824515098618434,13.536522173523863,20.085432324648536,10.649132635604431,10.128069918138195,4.391488791254531,-9.631080718681119,-1.621145787004366,-5.40007525176415,1.909808285190124,-20.650914857232053,-3.3629549569936508,0,0,0,0,0,0,0,0,0,0,0,0,0,0,0,0,
113,27.590392648458334,36.941644145813925,35.874512999942894,21.64434330684486,15.817543617719181,11.640074609195139,17.334190885940828,9.146603938711834,11.566444734678711,3.2431176273810536,-6.576438378094295,-11.582583693320217,-5.435194402988131,-3.921282655481008,-21.13402448725651,-13.02186717499011,0,0,0,0,0,0,0,0,0,0,0,0,0,0,0,0,
114,26.59557680771522,34.05086533402954,34.82885311721488,22.41528640780581,10.250170764414818,10.966284867461255,14.644944844542863,12.004713825978584,9.884663534646151,4.74412492232463,-11.376925456808252,-11.201748962132129,-5.9161859098948355,-1.3839963110622335,-24.91531050437257,-6.854088433105602,0,0,0,0,0,0,0,0,0,0,0,0,0,0,0,0,
115,22.38941448944196,30.66166250044604,27.477450533446444,22.41263410594992,8.396006177130147,9.712814054764209,15.573806831644617,12.473906289118716,7.397069037675436,6.0023354779409885,-16.025699174456506,-2.211617997740106,-7.722743664380303,2.9460373582758166,-26.9371764303894,5.266513739028534,0,0,0,0,0,0,0,0,0,0,0,0,0,0,0,0,
116,22.601306525962592,33.473276979060145,27.14037097167749,24.50966616688273,8.118215391075566,7.405034783078172,16.5082066481214,8.058538788198618,8.594252770986131,2.420890231848233,-12.117028573629185,-8.432967123316473,-2.3733297060577456,-1.3239580839449445,-4.401909495136408,-1.5478114453254932,0,0,0,0,0,0,0,0,0,0,0,0,0,0,0,0,
117,19.70232520040136,28.71446348717128,23.612356982959646,17.602118009483668,7.067469083840017,1.8474548322258144,8.995633010535968,2.641547482676806,9.161853213377682,-2.1983913985573764,-3.553527339400887,-16.026532532401234,1.4041166553045912,-5.305961988080469,7.083414761747292,-8.267818009757429,0,0,0,0,0,0,0,0,0,0,0,0,0,0,0,0,
118,14.057602154110043,20.68388259900375,14.027273249637357,13.608966103900517,4.83486200200433,-0.2755597181891325,3.7076371606018483,3.2546304538537516,7.13247680598694,-2.282662454573199,-1.1718534587278668,-7.0685684730151195,-3.41561761644806,-2.2449493417644817,-6.981757913744403,-0.3732605270672664,0,0,0,0,0,0,0,0,0,0,0,0,0,0,0,0,
119,15.70648799018387,24.293709746587158,17.082346368168096,23.19928519766067,5.185611566584331,3.964336235653481,4.0053727233916305,6.1793399405574565,4.349915404267932,1.9283626788585906,-5.3304228056616125,-5.774858128435113,-5.517196462565124,-1.9986378482770277,-11.636393122961366,-8.903977941279141,0,0,0,0,0,0,0,0,0,0,0,0,0,0,0,0,
120,18.727910146485048,25.871054510604807,19.88478005963497,21.60451738181724,5.0825398828828945,5.827511869735204,3.2345328058646103,6.653700043120239,1.821717932209097,5.057059659557936,-7.777338308903424,-8.70606822821668,-7.027719754466759,-1.624485804441946,-13.497697724063812,-10.89160880008929,0,0,0,0,0,0,0,0,0,0,0,0,0,0,0,0,
121,17.578159910514543,23.16755500584818,11.342880051081345,18.24097076546193,2.8415895339021304,5.297567438196168,-1.292186577523772,4.620583366345166,-1.80793730083316,6.299106921717822,-6.0166603109489785,-1.780058685913815,-8.65572236230247,3.981616347285282,-14.088044765241975,4.8543678136953705,0,0,0,0,0,0,0,0,0,0,0,0,0,0,0,0,
122,19.495004714212612,23.02451469367658,12.464247177605195,24.905917241087224,7.022024194827885,6.7520145226004615,-2.5104218501339517,3.039372493374387,0.36264245275584983,4.639457357074193,-9.613126169713539,-8.276931667320895,-9.023064112582631,-0.037738796789071216,-13.75905669880288,-7.521087345885051,0,0,0,0,0,0,0,0,0,0,0,0,0,0,0,0,
123,16.615179631744795,15.41435943355981,14.515390935392546,10.186874141204072,8.32442287879357,3.929316093748838,1.6499031409319684,-0.37521191883000427,5.076419199537199,4.638449753210722,-12.264716756430644,-9.641384554590587,-5.787527514360633,-2.3652058764880763,-16.32532689378617,-17.465276791254325,0,0,0,0,0,0,0,0,0,0,0,0,0,0,0,0,
124,7.158878200782468,6.657396583528623,6.214108183572961,-3.5789460794357666,0.5136754189587549,-0.3165550120445175,-0.8404333429697743,0.9855753711094906,2.6791438179906635,4.262359202358667,-13.981860239488384,-1.2096540365701713,-4.233536358077998,1.0966318203195726,-13.978926850748465,-4.5870953867833535,0,0,0,0,0,0,0,0,0,0,0,0,0,0,0,0,
125,2.425358246591145,4.695553413822168,-0.6122497689466542,6.110271861340024,-5.3838678498065775,-1.7201621836905616,-10.375618866744816,8.656474819475136,-3.3483822219614723,3.965331307630052,-14.395705014850364,-3.132331729066493,-7.138068027742449,0.9139049392809113,-17.620496794196043,-6.324834516400169,0,0,0,0,0,0,0,0,0,0,0,0,0,0,0,0,
126,-4.644327103544413,-0.2432222529807575,-8.30844578213599,1.6914032273980126,-10.950088109906844,-7.201172338081577,-16.790920233763416,-3.2282878584756247,-3.1137857331457752,3.2738667239353703,-6.010797396312071,-5.227440821737602,-5.2021984442149005,0.7281843771390015,-15.683402064267746,-10.250139409753949,0,0,0,0,0,0,0,0,0,0,0,0,0,0,0,0,
127,-5.950923907205237,-1.6945634014961968,-6.259454922077737,-4.286104163599049,-10.238066378585273,-8.75693180707897,-14.93902508299621,-18.32579878179105,-4.513667695137855,-0.3192551820973364,0.2495573604921475,-5.689753149808851,0.19785117591678159,-0.506441102904148,-0.2628414247396975,-9.344886047755853,0,0,0,0,0,0,0,0,0,0,0,0,0,0,0,0,
128,4.1463395766670885,5.155553111734918,0.05889862828658465,7.422773118166333,-3.371936821348072,-0.6210534948413056,-8.495717766665337,-8.318818339649184,-5.293195320862431,-3.0314911812803302,-2.4359064200658267,-11.869420543432405,-1.7885761599271817,-5.107412460532011,-7.23141642953561,-14.586989150684945,0,0,0,0,0,0,0,0,0,0,0,0,0,0,0,0,
129,8.073107880120261,7.82595447882818,-2.320998506469806,11.76016012601383,-2.430478228341258,4.259486804785183,-3.682246306146368,-0.06039319224805695,-2.482163178194398,1.215905397555602,-1.7561627195720888,-11.132952964632189,-2.703423178114285,-3.8442280879308797,-20.646998197954094,-14.024294136035852,0,0,0,0,0,0,0,0,0,0,0,0,0,0,0,0,
130,9.543673371441628,7.121412364435287,5.5687350661976325,8.455244876781649,-0.4227905667088123,1.5902459702300007,-1.5577180532117438,-2.2067997185420154,-1.617947491883342,3.288057747262094,-1.323450061218562,-6.131879870288337,-0.8862802692924614,-0.44855121810207876,-12.301837207140352,-6.359682688023922,0,0,0,0,0,0,0,0,0,0,0,0,0,0,0,0,
131,12.675343366955786,10.460438476572108,14.335954086719738,10.542364716364204,5.384439787106089,0.6384396939526766,0.8002669084356171,2.8189888541549806,-0.7942997650170227,1.8545130864311297,-1.0768136431425148,-2.9394719732153067,0.2912473160697764,1.5536538858928983,-0.5266361162585049,-0.057588050985078354,0,0,0,0,0,0,0,0,0,0,0,0,0,0,0,0,
132,9.298293645550643,9.291396196137441,8.257160985574274,11.176496236380075,4.987841526515723,1.7679200191082884,1.5997698675745937,4.384048970751394,2.9226366951148393,2.214316858188509,-3.237373652470499,-2.200940019197276,-1.2150084304133841,1.5664938880797497,-5.075649617125318,0.7158291186596646,0,0,0,0,0,0,0,0,0,0,0,0,0,0,0,0,
133,12.450548302312853,9.582653669372178,8.292803376691893,12.574663738689054,6.640052884062214,6.703078959469423,3.7575680253394808,2.483759406011586,4.935088236733648,4.678512791195555,-3.3153491452775086,-2.653697603582202,-4.809386840087225,0.6148691473588457,-17.82037365539499,-2.6349173554688754,0,0,0,0,0,0,0,0,0,0,0,0,0,0,0,0,
134,10.311573970245007,7.230610408971842,3.0981520605818957,8.567054866045083,4.254873445290428,4.608909563092681,0.17949981223546274,0.6978677849416783,5.039911094611039,5.510777676826734,5.855081519208667,-5.1606887146065645,-3.9036126514859077,0.9350119509556194,-9.773149470909708,-0.22090104142119493,0,0,0,0,0,0,0,0,0,0,0,0,0,0,0,0,
135,3.5353449519691083,3.1178549432351303,-3.808742413007394,1.4569928584994045,0.2577689842657378,-2.383590802634899,-1.1510808522683078,-2.20277620659337,4.5879300138564645,2.4532941204248857,7.385619746559797,-9.698376398077691,-1.00098263645922,-0.11002603602634053,2.6737765821421107,1.4288226082495132,0,0,0,0,0,0,0,0,0,0,0,0,0,0,0,0,
136,9.486237464008695,7.03638024750893,8.163686833318096,5.331254391597213,6.5815353458052925,-0.3537400412200924,6.9083262211584895,0.4958222239635006,6.074506894908751,0.33130004388017653,-0.1922508280502342,-11.287839227159054,-4.656964924378428,-3.4393897886065616,-22.715956605153266,-9.665249386906654,0,0,0,0,0,0,0,0,0,0,0,0,0,0,0,0,
137,16.551228767671887,7.408068052469716,18.233695056421112,9.500323188133294,10.949347048359328,1.9199641971779755,9.209104344561837,11.131233044299151,8.982378616483743,0.37221214178471485,-0.6192558464176869,-9.471727026165908,-6.7056408971776875,-3.774122496494954,-35.06317555126731,-10.830008327619915,0,0,0,0,0,0,0,0,0,0,0,0,0,0,0,0,
138,9.78441078040818,-0.9408318364964572,4.148592696704512,3.79838645981755,0.4465948223314342,-3.584343753821983,1.2166873019596522,11.435261329531542,6.923407026093344,-3.4051318361007077,0.330797562197219,-8.399034956653608,0.36729821401917206,-1.3346201742881902,8.216092604317069,7.979226528328951,0,0,0,0,0,0,0,0,0,0,0,0,0,0,0,0,
139,1.6936857859076468,0.048094224397985386,-6.81220901156513,6.491429552585075,-2.322961936123505,-1.7582455842725437,-0.7428394596783221,2.9329905041772193,1.9073072705583485,-5.563862730555314,-1.3610062220826933,-6.7274824951749395,4.340306178122148,0.8207391392633099,31.32791119783768,18.1050747552163,0,0,0,0,0,0,0,0,0,0,0,0,0,0,0,0,
140,2.663704931697353,3.3987898884948606,1.2454224418140925,9.019666373332186,4.64655763981709,2.9297579408109726,2.0432362730920133,-1.225031057770721,4.062334284676112,1.3424600756014655,7.218890951881548,-1.2354400675370698,3.8940590209332555,5.125218715119701,13.224916785008332,12.628641420950366,0,0,0,0,0,0,0,0,0,0,0,0,0,0,0,0,
141,7.6501119070168855,3.4797372297121214,6.449459579189352,6.045524658384963,3.128813721846832,3.45106186606521,6.221251126316339,0.713254516824243,6.927892698659221,5.062860957979922,14.677830393362342,0.5564164320969951,5.225354934823855,6.456905314510863,11.899821700659032,10.809268278214619,0,0,0,0,0,0,0,0,0,0,0,0,0,0,0,0,
142,2.463199805098384,0.09494548947726145,1.0553422242646509,6.5167699591556065,-2.003470706742064,2.140006486858404,5.933610862000204,3.112500637085457,2.016310978905395,3.8036883220339917,9.108560932840618,-1.8148813888070947,2.426125470520489,2.517265311835473,8.521392297387152,8.914276232984655,0,0,0,0,0,0,0,0,0,0,0,0,0,0,0,0,
143,2.7779613447868092,0.0787122640231841,3.2961067946467546,9.670832496548876,2.6285536034963184,4.5336683443930035,2.947110691978952,5.4842397222746335,3.3470542922063373,8.256534795851948,6.604557492935527,-0.25396418834563406,-1.2891488552077845,2.2168397094476546,-8.580562173450247,4.42953250174976,0,0,0,0,0,0,0,0,0,0,0,0,0,0,0,0,
144,9.905075601142869,4.4662420753573215,5.6289490247716,11.435465684102926,6.925010067388577,6.930387555625693,2.750314673608166,6.799490629238365,8.309999003799163,11.55865406395597,6.679495357998363,0.3653850904413787,0.9211281978850536,3.7020707563239483,-4.481344107636772,4.472877733999894,0,0,0,0,0,0,0,0,0,0,0,0,0,0,0,0,
145,3.405620451081724,-2.0489066991673894,-1.167923340274534,4.819830828447039,3.529931912682649,1.4702068973684845,1.1258074712004813,3.6161300494281576,7.290969656957273,5.420487954640777,-4.424368304284371,-5.919406993463241,-3.4550551627476835,-2.029429001200654,-13.876687021647157,-1.4915136404150786,0,0,0,0,0,0,0,0,0,0,0,0,0,0,0,0,
146,-7.790150686034131,-13.842151516371757,-11.526892255675413,-5.3487627340853905,-2.8397781746763187,-6.061461109768501,-5.007661584547286,-3.374130786743514,4.210433343734152,2.8764102131967064,-0.9540767837376336,-8.472686435876227,-2.6949949115797125,-2.38018294474179,-14.588756331423752,-7.617589838678803,0,0,0,0,0,0,0,0,0,0,0,0,0,0,0,0,
147,-8.901614977580678,-11.574122544446084,-15.45750663907485,-1.772153114233376,-3.938640021572212,-4.811463195250695,-7.050230897255943,-4.893068503952577,3.395483539221189,3.790372535018065,13.471748232548222,-8.95397364473402,5.274126999096794,1.1873114385248442,16.47563338814456,-3.9776230693056505,0,0,0,0,0,0,0,0,0,0,0,0,0,0,0,0,
148,-5.2865033750548065,-4.90322504105751,-9.256972470644243,1.3913133949339596,-2.0667177270036916,-0.4106773934250043,-5.5577641700681255,1.076374840772914,1.7960742399240388,6.668280953553747,10.668089335189777,3.369087886776015,2.7775768547554236,5.310894863437127,7.157577551732359,5.7803782251240445,0,0,0,0,0,0,0,0,0,0,0,0,0,0,0,0,
149,-2.2080465814322565,-6.413451222914631,-9.270747342710024,-5.132774260247928,-1.818512889628792,0.020590642122911618,-8.276020192945978,2.1322608812026402,0.3345603579560503,10.21153708440795,4.925115483140019,20.54540148518396,-0.5002191904124658,11.962113370289629,-11.252836292238726,19.56835020582381,0,0,0,0,0,0,0,0,0,0,0,0,0,0,0,0,
150,-0.35115028652123215,-9.197083240934944,-10.71170351057404,-3.9642058578635897,2.2454782866269625,0.7476162558876922,-6.8470727260747,-1.3748635950446584,0.5241666673448862,12.635543930628188,7.086790878270207,20.174062707737292,4.682424084552409,15.423210179009118,7.509052214386315,23.264955047011817,0,0,0,0,0,0,0,0,0,0,0,0,0,0,0,0,
151,-1.6493293752118632,-9.950705824369322,-6.248346553424653,2.1365697704062683,2.5367106469475402,2.2570577156466953,-1.3646571919881012,5.596396720911557,4.183646334570284,15.709843910476032,5.626935076784221,17.181959933505638,6.560510449886067,15.825047989010926,9.741813345914473,22.749116711919925,0,0,0,0,0,0,0,0,0,0,0,0,0,0,0,0,
152,-1.08917770873839,-9.066354436707854,-6.687968272213993,6.206788291541557,0.20415089429587852,4.407668468761415,-1.7481762427210015,14.989333851021158,3.8536959705915166,17.83641778715816,15.032905988065274,20.81091595427972,6.835104453595832,15.994691403594082,0.9801860489531435,22.14360614776935,0,0,0,0,0,0,0,0,0,0,0,0,0,0,0,0,
153,1.1437869833369518,-8.445254418191467,-6.37729968659184,4.9835288871006185,3.288760833625247,4.926320757978971,-3.6083167596170256,10.21130522156588,1.2690879997165183,13.417400513420247,23.493512809325825,14.17728681186535,4.210799222740967,11.008035070920968,-1.7604242165019244,12.66881719820077,0,0,0,0,0,0,0,0,0,0,0,0,0,0,0,0,
154,0.7419466275218269,-8.18142182686924,-6.335577242553029,0.034190285048453006,5.825075526992322,3.18984294634501,-1.9114815024009602,12.485030094090519,1.5841966693213259,9.01568293536527,15.207215163934553,8.635962669231152,1.7428293837999522,9.585472018450623,-2.670825055553534,12.559526509010354,0,0,0,0,0,0,0,0,0,0,0,0,0,0,0,0,
155,-0.2588322368038689,-10.382890058847494,-8.979561291335585,-3.07503414087185,5.617973711734493,2.6478133719861603,-3.28293926333572,16.218455770584825,4.801054453596505,7.63405350371545,11.23106420384499,6.551145966975053,3.105003672811674,9.319362414168847,3.4587836474931564,13.45995112924782,0,0,0,0,0,0,0,0,0,0,0,0,0,0,0,0,
156,1.9629265813618133,-11.283121478180021,-1.940842852440852,-0.2060527378954191,6.400202258707537,5.7344733947243185,-3.3092456803956622,-3.3706626384954177,7.333301325653084,6.77093532709742,9.56328836444128,1.0354271432642186,2.0445894936779325,4.09073394666224,0.11104864520434887,2.73583453688412,0,0,0,0,0,0,0,0,0,0,0,0,0,0,0,0,
157,3.486576676353451,-6.744815957925994,1.4356524756576903,5.993865927808798,7.631168169940338,8.472230876850432,1.3776341840491568,-7.298079727053832,8.943997480851301,7.62110422867428,1.7331374683894865,1.0994116256702178,-0.2075352997991935,3.2977565820600674,-9.23033245506791,2.3801851694269054,0,0,0,0,0,0,0,0,0,0,0,0,0,0,0,0,
158,5.761490242403113,-1.2012086775969237,-2.7094193748052646,6.749685946411802,11.158750034144134,11.0439120377346,3.812266936991648,12.781312511253077,9.81618591096063,10.410541613837836,9.396337572512614,5.827316567554369,1.1257532959610188,7.57358597411433,-5.28082938127794,8.284304449372746,0,0,0,0,0,0,0,0,0,0,0,0,0,0,0,0,
159,2.8620128380707115,-5.076137059625069,-9.871875020001056,0.2185367600206689,7.814388729992572,9.202639036566481,-4.925542506656711,11.562190919250554,8.687062257030988,8.51718278050442,17.913158569278067,6.112339163730141,1.2691000650959339,7.024433465782778,4.768312024370999,10.845897834711902,0,0,0,0,0,0,0,0,0,0,0,0,0,0,0,0,
160,2.8145266848572987,-5.6808406073912465,-10.575218021138298,2.900506577091022,7.362032979113565,10.67174963152658,-6.739159440239263,7.778914985795765,8.330460583419686,5.740589460384896,7.52829167742793,6.642312517419825,-0.6638019961230128,4.306928625180703,4.286200023367883,12.28306766826573,0,0,0,0,0,0,0,0,0,0,0,0,0,0,0,0,
161,6.708829890869552,-2.0650450133734495,-1.6585462904564992,9.061247601068672,11.705348997100643,16.348068687556562,1.4330828568017182,8.46300288779834,11.685816402984074,8.285191241716461,2.129551748507126,8.63983606476799,-2.510085423272926,3.5400715252366695,-6.761306595930009,5.0841723674729025,0,0,0,0,0,0,0,0,0,0,0,0,0,0,0,0,
162,4.9157952842679435,-2.996780076367486,0.6525913985008458,10.636599595701355,11.86088777127803,15.263086751130416,3.4208654684458253,7.444200253666978,12.3564212852541,9.81475236989813,6.174200764814785,7.746032676515185,-2.5382085885388364,4.384797388333467,-7.486296124936203,2.747397488060418,0,0,0,0,0,0,0,0,0,0,0,0,0,0,0,0,
163,2.5610036546184887,-3.80096405043777,-8.097472615767515,11.28363671677512,10.619058020470575,11.101484319228817,-0.6183006037314982,11.175801595438116,9.328878726472524,7.843129023953239,4.613799577307489,7.8339339378248525,-0.7163781120064812,6.529058626150032,1.1746136423808338,11.262897165912594,0,0,0,0,0,0,0,0,0,0,0,0,0,0,0,0,
164,8.49043624598518,1.6495228293949111,-7.929948668346171,8.675978067112176,13.09554773806839,15.572112219031744,-0.9243486608320097,14.157474670276478,9.691936190737309,6.641590466703832,-0.2039530706070991,9.494851389974258,-0.8634970654997431,6.659031802891221,5.619865825761053,14.473624825734031,0,0,0,0,0,0,0,0,0,0,0,0,0,0,0,0,
165,8.604103542932528,1.1495437914670177,-5.143979282093262,3.5198552591757633,15.0067259423543,18.233144058745566,-1.9217231523132554,17.24721784728639,11.32493263608498,8.016533459760709,-4.689572285431069,10.190187198081702,-1.8336015144923152,6.351440152926145,4.574390547967212,16.09874470027663,0,0,0,0,0,0,0,0,0,0,0,0,0,0,0,0,
166,1.6841456184583699,-6.4138399569599684,-11.795918337104446,6.733595460244411,12.209706952273642,15.783853266856237,-4.420225355661632,11.411421970966668,11.14772422566935,8.588261540275283,-4.67006673234134,8.464471862946965,-2.5795532714868585,5.332262611896226,-2.7101095902169305,16.753217160171552,0,0,0,0,0,0,0,0,0,0,0,0,0,0,0,0,
167,-5.017553395552277,-13.267842322344917,-19.05453502034022,3.806716994529263,2.4691370775970563,11.174595443883524,-6.164971687887052,2.8362301989197016,7.3405581834578015,8.04546433559888,6.340021422818978,9.409982734560685,0.40938554471095756,5.054379536651723,5.213841818241789,13.842876983613834,0,0,0,0,0,0,0,0,0,0,0,0,0,0,0,0,
168,-3.1173716529264084,-10.845724571581869,-11.655864717714433,-0.9529379493860297,3.474367869850198,10.800929651529074,-1.2915896448012738,12.641096438769834,3.0496776467079485,6.373955050225007,8.681113283523786,12.877419205081424,2.2838152692499136,5.1272099645979665,13.820173849414957,12.749124306435206,0,0,0,0,0,0,0,0,0,0,0,0,0,0,0,0,
169,5.3840452526815525,-4.321361930293868,-0.5669929961633855,8.315545339954006,13.059379934336725,15.722873037199609,2.748884040237904,17.529690160876328,4.7478007568549,7.916208472234743,5.473412029541279,11.46250924034669,3.215811010102854,3.280794551201211,5.78420296491322,3.090664785209568,0,0,0,0,0,0,0,0,0,0,0,0,0,0,0,0,
170,5.314356343782762,-7.693693302914234,-5.147763460518192,9.559693536514779,9.713079854988251,13.323249071010125,-3.822447475084317,15.854712048147597,9.097578757630174,10.096805718075117,8.571753886140584,8.798535917704214,5.8236063653849754,3.085636957120343,6.5398583488222215,1.212543564111341,0,0,0,0,0,0,0,0,0,0,0,0,0,0,0,0,
171,-2.0082132097575,-15.59089147053595,-14.283868086390001,2.2247235608019906,1.6546021361654653,5.758015643634678,-6.664464766345233,17.858134036734683,5.918512214386496,9.8992294629807,5.541525116671096,15.935338380926979,6.025680871018437,9.475127864584948,8.81806967154732,20.419556852569155,0,0,0,0,0,0,0,0,0,0,0,0,0,0,0,0,
172,-5.429670755443212,-13.868808706978385,-13.868098320570326,6.784424777999021,2.9163666268649138,6.292938926291754,2.8260472510363286,7.577754480942872,5.1412170017385534,8.48866679920502,4.706122281279264,14.8209299014419,5.312515228547554,9.406639865955924,5.2907223436287865,19.693955966769245,0,0,0,0,0,0,0,0,0,0,0,0,0,0,0,0,
173,-2.730865094463411,-6.48423936236982,-9.554257765370508,10.617134570314946,9.375469078398964,10.751275144685494,4.615531679869989,0.8943701402348552,7.955548535281366,10.118633750302237,9.883406031000774,9.220286581286231,7.907564181555969,5.939985083527787,10.053840865528286,2.627490442099015,0,0,0,0,0,0,0,0,0,0,0,0,0,0,0,0,
174,3.5572010921383708,-3.8134815069230115,-5.624185978789413,10.24880903776618,13.60855229757945,11.551692455324769,-4.705009962481725,12.155036143343594,9.139898357029438,12.826099078791415,-0.5800570562583545,16.566691656203233,5.981757438077821,10.506043079277461,12.614970210787533,14.691167101267306,0,0,0,0,0,0,0,0,0,0,0,0,0,0,0,0,
175,5.111195873966977,-3.317018009824295,-5.126061908905456,13.217197114034335,9.799205494025983,11.27964544299084,-5.5463611592220445,19.434306090858257,9.124798161429439,17.18159543395258,-0.5652636763207397,24.31939117013863,6.2160114072416235,15.533572005721034,14.797604091724061,25.529907747160713,0,0,0,0,0,0,0,0,0,0,0,0,0,0,0,0,
176,-1.2614201951483608,-4.357856706033601,-12.636334192482707,8.879010427834118,0.613454966874059,8.306942813133361,-3.394850385618412,12.382719514071368,5.989694313773846,17.457207491903524,10.652880659435226,21.92370270390702,6.830629756253657,11.549053765720757,7.163807626986269,7.906546156272794,0,0,0,0,0,0,0,0,0,0,0,0,0,0,0,0,
177,-5.4921745284510735,-8.596664034660165,-16.741357198270407,3.167909886998075,-0.26343021007645007,4.91347683822363,-5.5457370338415615,6.679977635120309,1.6040674403822948,14.269661222829729,5.550843252456858,25.140976570871942,5.218671658429923,11.332821188001788,-1.3738048906008729,9.56179526663569,0,0,0,0,0,0,0,0,0,0,0,0,0,0,0,0,
178,-6.153403870863855,-10.906089743348616,-13.04745450457358,3.9903067045972307,5.127146109377577,4.784218033384718,-2.607049762536093,6.915424980283433,5.133117757194249,12.150075304927348,5.613033665978618,27.6741943852985,9.782333627266974,14.589647092251457,17.13125466554783,28.858627814349592,0,0,0,0,0,0,0,0,0,0,0,0,0,0,0,0,
179,-5.687167250223354,-10.188831645140993,-9.502805053263444,5.731978411996039,5.962349139287198,3.5707780436593453,0.4863966351336728,7.87362482729867,7.139336695158935,9.502215810306517,11.892310679412105,19.799049233236584,11.767750105351233,10.871189453439824,31.12290712663722,24.1638922996397,0,0,0,0,0,0,0,0,0,0,0,0,0,0,0,0,
180,-6.111573579085956,-12.315576791866334,-11.792634794696681,2.92848979900981,0.4344404080663651,-0.23180531171178131,-4.228997880737808,4.126836277384484,4.3131008378083155,6.888182682957401,4.249969629656523,12.96350613138865,6.204992146700006,5.8957777600019625,21.949685731390034,12.988201885777155,0,0,0,0,0,0,0,0,0,0,0,0,0,0,0,0,
181,-4.886410822155767,-11.1192103386432,-13.126503578703876,-1.2264056945612651,-0.5892617992781481,1.3849580701691764,-4.425486806211296,-3.0512045374063916,2.6246084278423236,4.723954874301786,-3.817503845041365,6.335425670849123,4.007781183704889,1.6802116327443137,19.26311537631582,9.053704292274704,0,0,0,0,0,0,0,0,0,0,0,0,0,0,0,0,
182,-3.188169804097498,-9.93126267394922,-7.318566849216637,-2.1671904980727277,3.6168363078075743,3.0434076915096853,-3.4453897525009722,-0.7861724856214778,1.611941927087905,0.035374550692480966,-12.203118941667263,-3.7354713382221476,1.1562866712874182,-5.234922756405787,15.480973660286374,1.9067448237580873,0,0,0,0,0,0,0,0,0,0,0,0,0,0,0,0,
183,-0.7780722990604261,-8.1499106812104,-2.2657906476804612,1.379939011473681,6.481967231005115,2.9194447398099754,-0.29478351760994315,9.965985019707176,3.384618899013617,-1.7714805066951769,-11.680286208232388,-5.13945084789318,-1.0141896884612365,-6.207178081661773,12.289225479324806,2.0824104271130714,0,0,0,0,0,0,0,0,0,0,0,0,0,0,0,0,
184,-1.8077850539372662,-7.380124806343957,-9.283060227574595,1.1089924482092641,2.946084872422432,1.7368452455194614,2.5324854998314947,7.063668092419022,5.017023052837025,-2.6117541081809037,0.7503219863835255,-1.8371399844433967,-0.3072381843119416,-5.212139480208151,21.52007338339257,10.220706924541007,0,0,0,0,0,0,0,0,0,0,0,0,0,0,0,0,
185,1.5556425809700443,-6.2255365913067635,-12.614169386140318,5.2202775508764745,2.4128808207895673,3.8773802218165656,0.30933648475539144,7.341807990149107,2.6315383878846745,-2.514400793685013,-2.974969075440953,4.784511350430819,-3.0518113683423564,-4.51148632433447,14.681207371458328,18.277896436733823,0,0,0,0,0,0,0,0,0,0,0,0,0,0,0,0,
186,8.001111908898594,-0.7152146604655343,-5.666631595067031,15.210045514042378,5.597790837370326,9.160034821975415,2.5375707581796263,17.77060248203105,3.5334647797940164,2.725162900292986,-10.77442532486512,8.907690820828662,-3.574301738986165,-1.295694447835487,1.4525376743414284,17.3883176101353,0,0,0,0,0,0,0,0,0,0,0,0,0,0,0,0,
187,6.143195103458723,2.519131557138607,1.8410358361314394,18.90257854379564,8.78282757369702,9.762417923600012,10.331091028721389,14.651199072794789,5.789908160716962,3.45956472033005,-5.14228753238929,-0.6542957095016959,-1.2507887457228293,-4.8903867263520056,8.296801145456627,4.0396959753248645,0,0,0,0,0,0,0,0,0,0,0,0,0,0,0,0,
188,-2.522951014723091,-5.474137517771609,-3.82880866871853,9.258830338769059,5.9542803774698,0.08283576598042686,7.224949467275394,0.43245742525270714,3.9721753615325923,-0.8107493586425534,-2.3066742304122414,-1.61491107059706,-0.7038820343281884,-7.5573057123729654,12.314728015701405,0.7093178396881328,0,0,0,0,0,0,0,0,0,0,0,0,0,0,0,0,
189,-3.901378301734219,-9.616217360380212,-11.735009960523492,-3.7516504538326316,0.695802241114869,-5.437648846717273,1.3090777121751742,-1.533451412017527,2.6833745939172786,-2.908051317131978,-6.0745777016314975,8.766309387264556,1.3565700701131078,-1.274424089543615,9.766963565317809,14.190519165032278,0,0,0,0,0,0,0,0,0,0,0,0,0,0,0,0,
190,-4.310782053840075,-10.046778676321502,-10.588499848738898,-6.08468143345868,-2.486326526472329,-5.143617283055349,0.7816216131073119,1.8576340107493685,1.0477102579090172,-4.451770330880862,-9.148859844300517,8.776653225346251,3.756272414719433,1.4508835096091275,19.445487095123028,20.268431598515953,0,0,0,0,0,0,0,0,0,0,0,0,0,0,0,0,
191,-5.047563769846667,-14.464320657112474,-13.266258016098003,-0.9683801754750951,-3.091197410129462,-7.284300044573183,-1.9479254366776142,-1.7551683061820325,-1.7539377885908038,-7.940336080645707,-10.053095907169265,1.089733178506492,0.8877038827806985,-4.815475579771558,24.754822193457258,10.843245192249775,0,0,0,0,0,0,0,0,0,0,0,0,0,0,0,0,
192,-1.9490968534788173,-14.216243913347599,-18.589652559843675,-4.04169251461499,-0.8777539507035961,-9.390250733711921,-6.999473981588698,-0.1227454078511343,-3.520837888797928,-7.967862844993206,-7.173408029482033,0.318716053776825,-0.9467400251094631,-7.142256677438326,17.051542352278574,3.214112111374611,0,0,0,0,0,0,0,0,0,0,0,0,0,0,0,0,
193,0.8184792502317535,-7.018462272882175,-10.634200933295332,-2.5626239172644283,2.959059869298166,-8.005379605079675,-1.5441207155513936,9.276508960633294,-0.8870770897856772,-5.267161486845097,-8.592991496722235,2.006692133899577,-1.586381255929922,-6.042672688370672,7.213270580125737,0.2907164087313667,0,0,0,0,0,0,0,0,0,0,0,0,0,0,0,0,
194,-0.20201638299840852,-4.982913995281095,-8.618368566273602,2.965980625554579,1.989506566104268,-5.523500868845446,3.0045986338389383,9.895726284991781,1.2103942994726395,-1.4183666028706199,-8.06484408291422,1.165081423427523,0.04102227779978307,-6.236218680472717,9.087945964260058,-5.446071626886685,0,0,0,0,0,0,0,0,0,0,0,0,0,0,0,0,
195,-1.9069703563355347,-7.630179519933961,-17.524582945207072,-1.7982780742718205,1.4130917556799147,-4.1301786791802755,-4.056497375335823,2.492947642998928,0.4479410653876954,0.21991099380998946,-8.473797609372753,1.4594151878817456,0.7428423011540701,-5.7690327202437,14.07302095270721,-2.6753131462424466,0,0,0,0,0,0,0,0,0,0,0,0,0,0,0,0,
196,-1.2689590085557967,-7.072995075869443,-12.713073675395918,-2.9380341812671986,5.597063639255467,-4.902594909326098,-5.706869791646952,-3.825612506327616,-0.9950746928174965,0.7018582786145373,-16.080782991047315,5.8314672160596785,-2.7068078948778833,-4.312812198253411,3.326603685821013,-0.6766913635323712,0,0,0,0,0,0,0,0,0,0,0,0,0,0,0,0,
197,-4.3282977110841045,-6.7243730368820565,-12.840722123131343,-2.160476948800124,-0.2825384873291341,-8.731110582826759,-5.952690989277457,-4.644099176851796,-1.1545579831254287,0.4310980085817846,-17.819048117455836,5.511960165199994,-2.1326186542059276,-4.914236032490805,1.3292537180987694,-8.769139350601565,0,0,0,0,0,0,0,0,0,0,0,0,0,0,0,0,
198,-12.162781666907279,-10.783084769159359,-27.06502387478659,-5.134277482867134,-13.276640376820751,-13.603894295577703,-13.84632839667293,-0.27620803480743916,-5.61774683997038,0.6891390200097902,-8.888379451028598,8.52135426847407,4.682366958672503,-1.668765728400544,23.847564011872144,-4.099293360050455,0,0,0,0,0,0,0,0,0,0,0,0,0,0,0,0,
199,-13.195364342435141,-13.623813154386937,-27.113807626600163,-0.15139106247623602,-13.43477251043845,-11.586437653134638,-17.366158576951022,3.0540865566964612,-10.647271419871856,2.3794555193274505,-4.982814121568964,18.26539978595501,3.8766863150256583,2.7160262510753483,28.665333435134364,8.894410761308714,0,0,0,0,0,0,0,0,0,0,0,0,0,0,0,0,
200,-6.362595027617715,-12.789343065269293,-19.59973586903908,1.5929429721277302,-6.62912518960124,-6.063410885171436,-15.082032209507815,3.844494903360882,-10.83224270779371,6.093916885822672,-9.96525506700793,20.198184750601797,-0.5346001000099889,3.659840032050674,14.471796669898964,5.720472113802087,0,0,0,0,0,0,0,0,0,0,0,0,0,0,0,0,
201,-5.4705092761522565,-15.118170800284474,-21.419975448910066,-9.486351441661185,-7.616171857828846,-10.168800765111541,-14.021700537830924,0.7742303554426826,-7.075888714533718,2.9296314168728514,-15.869730109256835,9.18606194650701,-1.2313834315157877,-1.1473738405829579,10.07789623845009,-7.942886441224349,0,0,0,0,0,0,0,0,0,0,0,0,0,0,0,0,
202,-10.441344206199517,-15.104359953883971,-23.153027954175712,-11.489436027051141,-10.340297521385423,-14.511440174620844,-12.419192373082751,-2.8107355433482155,-6.444919756155965,-3.128120075131669,-15.816531241230395,5.2474637308944025,-1.9535409381982092,-5.0061209102816235,5.905435836431978,-11.338225086534486,0,0,0,0,0,0,0,0,0,0,0,0,0,0,0,0,
203,-11.102547249877233,-10.874313431785936,-19.523979159406053,-1.820295624178641,-8.558477562175284,-11.658453392783485,-10.176862250846199,-1.8131428301764174,-7.888471268607567,-5.405287430839219,-17.593593217991955,6.439476056415165,-6.057379641754737,-6.428372982625911,-2.904164099824416,-6.656696932381212,0,0,0,0,0,0,0,0,0,0,0,0,0,0,0,0,
204,-5.6997552957631115,-9.434212337176746,-14.434289144100404,1.559909661159736,-3.723273116020522,-7.8786782038041,-11.07337444168735,-0.9116755681934876,-7.5375090780580205,-6.951399744867043,-20.200580092690846,-2.6137487852637102,-6.26272939953118,-10.36615968385146,5.788331797471788,-12.689768420346471,0,0,0,0,0,0,0,0,0,0,0,0,0,0,0,0,
205,-1.225196878015396,-7.758724236619855,-14.78506147991422,-2.1151548894956704,-2.521557261037941,-5.628709078525077,-14.13903645960977,0.3337574481647607,-4.92274021433715,-6.5135681531605485,-23.10565455578125,-10.974176938044128,-6.030526802162889,-13.78149092926392,8.692375389464544,-24.9231455687101,0,0,0,0,0,0,0,0,0,0,0,0,0,0,0,0,
206,2.423043209984513,-6.001376016049278,-13.912024447986397,-2.566508365482065,-1.6522207369037858,-6.187655775731486,-7.905510695818549,12.815650178378576,-3.2808380633195497,-4.859855841551749,-26.9719913837763,-5.362672368937311,-9.621848044054268,-11.412631138265166,-6.5231359035755645,-20.696750153854207,0,0,0,0,0,0,0,0,0,0,0,0,0,0,0,0,
207,-3.5093807831626123,-18.87437337140483,-16.52700693533879,-5.068024441548545,-6.114518992870643,-13.748198833657582,-3.7501337091585754,10.355169956953915,-3.916698542077313,-8.113705459024743,-24.981926152197296,4.385649078785761,-6.936871786977882,-6.602006695592323,3.201189645598589,-3.883248656717285,0,0,0,0,0,0,0,0,0,0,0,0,0,0,0,0,
208,-8.989272761748424,-24.486798075791086,-21.19890049436077,-7.291422337441404,-10.155759946443567,-12.800333754186255,-5.148959504502784,-8.158450617006153,-4.603745457528937,-9.394535049448933,-20.708976494748583,7.7611257118741435,-1.5076135469580976,-3.958435953278439,18.535308152995455,-0.5408715935341153,0,0,0,0,0,0,0,0,0,0,0,0,0,0,0,0,
209,-8.916417832473783,-16.723892563764053,-20.71993943362628,-11.242647360523037,-6.679776594481254,-7.629705562981684,-8.095967618294253,-10.152771782185965,-3.7859152294143996,-7.055946892515422,-16.56593574737157,2.2113852519599675,-3.2411655278784224,-6.2300278962499505,8.95927193529721,-7.705053049719352,0,0,0,0,0,0,0,0,0,0,0,0,0,0,0,0,
210,-5.806653525179669,-11.23293918358614,-14.429242008410995,-13.445900947423112,-1.3269035902898452,-8.795049522858804,-5.230124906988863,-6.407548996771212,-1.9049103936530258,-9.247209780876432,-12.906682918631546,-8.856043178097678,-6.003253068895205,-12.638635031592472,2.5785601425335756,-14.185976335572954,0,0,0,0,0,0,0,0,0,0,0,0,0,0,0,0,
211,-1.596516146008554,-9.969617064479749,-11.293189978504017,-10.261853599978807,0.636943998569194,-9.779935008148783,2.957691155315473,-10.523278991403352,1.5658173935940454,-11.934914846028903,-10.479340323608312,-13.967802677700433,-4.72224228171487,-16.168622117413193,1.573181371921791,-21.656234474803544,0,0,0,0,0,0,0,0,0,0,0,0,0,0,0,0,
212,-0.4199525069976886,-12.107249038687328,-10.796787351657564,-4.27486869543111,2.8077524837920578,-6.06716187819773,2.2487609800054855,-2.0197926983193497,3.4206996051830316,-9.033970224321138,-9.674556648562543,-6.123333763315159,-4.5580157428641,-11.710353649387443,-0.3462305014556648,-15.968496755536624,0,0,0,0,0,0,0,0,0,0,0,0,0,0,0,0,
213,2.6213189041071985,-12.579826893674209,-6.274781533274037,0.9257535891548301,1.7575180404408286,-3.7302800235585636,-4.4496316617099865,7.078611617669608,0.7591571054921076,-3.914599109317294,-17.184526449074212,1.5393647304665308,-8.150070542471255,-6.66028825725617,0.0942159990234046,-6.906989888548257,0,0,0,0,0,0,0,0,0,0,0,0,0,0,0,0,
214,4.212973075092769,-9.86548252057828,-9.02744755131377,-2.8847258394470146,-3.7843509054847217,-8.450351300603227,-4.488504592443757,4.918078055435496,-2.9567482870219948,-5.173274049278035,-21.530508300848666,-5.66396421015105,-13.004108130608188,-9.363622982463298,-6.02639474020134,-13.147960182909106,0,0,0,0,0,0,0,0,0,0,0,0,0,0,0,0,
215,-9.73278475525883,-20.462808802272438,-25.005701965467015,-16.709722718014284,-13.381426707147792,-19.196552179100962,-7.182598473943845,-4.497195151618897,-7.872063006519824,-9.254142813981119,-10.128315625561612,-10.139861098715215,-13.454370551897739,-9.6385537647176,-6.402195197760378,-15.965873048746197,0,0,0,0,0,0,0,0,0,0,0,0,0,0,0,0,
216,-19.638309583158645,-33.01478904231152,-27.78917371212122,-21.488691579597788,-18.37290855426321,-23.567807530596845,-9.332586068026425,-18.14350011884642,-10.428533385801842,-10.482322781530868,-6.856906954197342,-6.9491731949518964,-12.780776897345419,-7.766870862002477,-2.759502536835697,-12.595260791715738,0,0,0,0,0,0,0,0,0,0,0,0,0,0,0,0,
217,-15.342110144088977,-31.440318690604688,-16.02139405447346,-19.22596121884612,-15.487881745839523,-23.19746144649351,-6.650109044062681,-18.741020669199422,-8.151292909150698,-9.162894166497665,-8.471466780444757,-7.209543307999354,-9.835241787598207,-8.742029962866383,-1.2005404026138677,-16.467890939609976,0,0,0,0,0,0,0,0,0,0,0,0,0,0,0,0,
218,-7.399962790890669,-22.9022920781851,-10.567664435405405,-14.789371113461307,-10.724107778073773,-20.61116188309687,-6.214643841399258,-7.865159048308463,-5.1930502105165175,-8.380454359164759,-2.1321404747174313,-4.346114620116879,-4.341507645599123,-6.88612891931173,9.51141905437963,-13.404621380938197,0,0,0,0,0,0,0,0,0,0,0,0,0,0,0,0,
219,-2.5979177469902623,-16.49727656539055,-14.562693139121706,-5.938388725855717,-8.62609890264838,-15.247068278273474,-9.758558624845008,-6.790237246523688,-8.537549137607414,-5.992023419667518,-3.219550165455715,0.6924211481244811,-1.6117875065612282,-3.2219704045574247,17.31771477274593,-5.804528251646929,0,0,0,0,0,0,0,0,0,0,0,0,0,0,0,0,
220,-3.300964448130614,-15.6028507482838,-16.03802726420244,-7.332144251341333,-9.460634380879412,-14.601639010458868,-11.02868612220908,-7.899918538931487,-9.99390459504852,-3.140065500838091,-7.921074832983436,-4.033247621673667,-4.0206347639365845,-5.545724643514035,7.195991106982902,-11.364787436691113,0,0,0,0,0,0,0,0,0,0,0,0,0,0,0,0,
221,-6.51673331819606,-20.702810877338962,-13.36443903032631,-16.931644914975067,-12.774486827690794,-19.33474345989022,-8.666382860686454,-4.77317553472929,-7.224215417004473,-1.9763947683449743,2.3973253045073477,-2.386177369368639,-4.783492009553683,-4.87721356379636,1.1435609362550991,-15.242375586385482,0,0,0,0,0,0,0,0,0,0,0,0,0,0,0,0,
222,-4.365417575525697,-18.414469991104767,-9.032458683486169,-12.40302213913975,-11.282616292031364,-18.92335408086106,-5.624555868819812,-5.352726434941815,-4.729302768735067,-3.7769700357399927,9.614525863778965,5.811814817537098,-5.051679666119469,-0.8088110641697881,7.028045372775068,-7.280107507829449,0,0,0,0,0,0,0,0,0,0,0,0,0,0,0,0,
223,2.086872209241591,-7.475922848677271,-1.9735216720568474,-0.6300129016737941,-3.9096091507328197,-12.00943579352571,-0.463329499842672,-4.099097225524261,-3.054316009057686,-1.8825160630572526,7.692349825129028,8.976445363496595,-4.876012041027899,1.4859411318542897,7.822589387087852,-2.8536668525991096,0,0,0,0,0,0,0,0,0,0,0,0,0,0,0,0,
224,-7.118074803909792,-14.342655146435447,-11.105051902965556,-7.368178125249301,-8.731429409500691,-14.202136057793027,-0.7792529176619212,-1.681162582176242,-2.932363410072753,-0.9890284363490096,7.672931358798124,7.173189053112694,-4.4751645732142435,1.6760094976367341,-2.717427056449452,-3.135574442223181,0,0,0,0,0,0,0,0,0,0,0,0,0,0,0,0,
225,-23.498381502751272,-28.346430938801717,-27.68629043260205,-21.10769269535598,-19.405863889529286,-20.637246798674255,-7.780611785204883,-8.471031843506694,-9.459612002087034,-3.582932530904827,6.334363565697988,4.569493195375756,-3.4020329914638126,3.1956623404938185,-5.593793623541263,-1.8623694176681553,0,0,0,0,0,0,0,0,0,0,0,0,0,0,0,0,
226,-19.91248169276892,-23.53412441689221,-21.82334549965867,-17.545910363314363,-18.497071498937714,-18.28286235213855,-6.823459195285807,-18.713094918946496,-14.009656213386371,-5.13664776459623,3.125278081620994,-1.3731543639448347,-1.7759053944422263,1.943244332296377,5.107330661875883,-6.390987591941206,0,0,0,0,0,0,0,0,0,0,0,0,0,0,0,0,
227,-9.861556904985122,-17.314386943348694,-9.957749369102089,-9.092681680770767,-14.67421980335726,-16.732983870690646,-1.9387820790529418,-13.581044621769507,-11.862951198035699,-4.681115339767942,4.438437368613151,-3.381583738052907,1.410166011941453,0.4038241430268137,11.713214412861864,-9.002458666492776,0,0,0,0,0,0,0,0,0,0,0,0,0,0,0,0,
228,-14.943529951786132,-23.084247609966212,-15.207837274281616,-12.50046830286459,-16.345749802043258,-20.13184573746082,-7.2131120486758675,-2.8159907312218593,-7.954167124354766,-7.132345338644699,5.899559755431611,-0.7729712376374185,4.308057754268734,2.0489206786383383,14.26722655682158,5.66124306793102,0,0,0,0,0,0,0,0,0,0,0,0,0,0,0,0,
229,-13.375563970845604,-18.306478544193283,-16.336410240601708,-9.032675336706262,-9.961073014551914,-13.192366844154236,-4.914907362577651,-1.5096397746355876,-4.367621980872917,-10.78040689269236,10.976057917545884,-3.6248811299148045,4.459299443808657,0.20595477944924667,16.76419261267657,10.937515397938824,0,0,0,0,0,0,0,0,0,0,0,0,0,0,0,0,
230,-5.503283373376178,-13.097732638575167,-10.239139131108885,-5.0995962283460585,-4.033941135494729,-8.054130692782309,-0.24358248255049375,-6.454569372414838,-1.0468469289022586,-9.348618693036912,13.699823452203091,-2.5274198487115243,0.08077078990079656,-1.5666439732408932,5.4762915729351604,3.7087978431649464,0,0,0,0,0,0,0,0,0,0,0,0,0,0,0,0,
231,-4.601727200694285,-16.89925648138606,-6.686666563483612,-9.382418386938639,-6.555353515537092,-12.835033263507754,-0.9153898083258412,-6.986487630735041,-2.493550433623753,-6.086543345802603,8.712441342169747,4.8660736803234315,-2.4001792576304624,4.144983349118043,0.45869917015194517,14.109564393603804,0,0,0,0,0,0,0,0,0,0,0,0,0,0,0,0,
232,-4.780266592851518,-16.02108254359237,-2.901110651045272,-9.369099832048207,-7.392187156316055,-13.719580289165165,1.612004443878618,-2.8817584394129625,-5.108998959193187,-7.92961392108095,7.936938004081767,-1.2354647991622585,-0.703505217627594,4.242400109360958,11.387576824481059,14.025557532647834,0,0,0,0,0,0,0,0,0,0,0,0,0,0,0,0,
233,-1.6190973866879972,-12.082144131135678,0.6070607965523891,-6.267603587879464,-4.543935948648937,-8.617340186042313,0.6107196312972292,4.009344486266144,-3.2755759543403116,-7.805273608309605,3.474178295901652,-7.473611064348347,-3.2916807088159885,-0.5992793709434494,5.1015253256584145,-2.4152038328768235,0,0,0,0,0,0,0,0,0,0,0,0,0,0,0,0,
234,-1.9051648833012678,-13.57431108629892,-2.7352346739541815,-5.245629687412972,-5.940091482296296,-8.485302797293315,-2.4337518717539695,5.162968938365196,-1.2697050208886367,-3.7578160002539107,-3.94023748161149,-3.341510329152541,-7.31928564710465,0.9080998773803373,-8.577450998187928,-3.742324357569437,0,0,0,0,0,0,0,0,0,0,0,0,0,0,0,0,
235,-3.3869868421377305,-14.033189924543208,-3.4393246219570415,-3.9665699382013173,-5.9556391772884325,-12.00463401126109,1.8890670741957365,0.12210483265933192,-3.1743174288782825,-6.840267620726706,5.850314566163334,-4.520888198050372,-6.297295121674395,1.3889226427221075,-1.0697440991514924,0.6073649168997477,0,0,0,0,0,0,0,0,0,0,0,0,0,0,0,0,
236,-5.010983233250528,-15.118432848753955,-0.07287621162817004,-9.31048460729535,-6.701074476688447,-17.599942408046644,0.799366126471881,-6.883779732878246,-3.6953948419042746,-13.17361191172877,15.64356999536507,-5.262428938088618,-3.925463350146231,0.04291235909703062,8.910980106087578,4.062119968140934,0,0,0,0,0,0,0,0,0,0,0,0,0,0,0,0,
237,-5.703004389071886,-13.977500995602625,-0.2498381146456481,-12.409855259689984,-8.79041201349748,-17.728238514728105,0.9615437010216255,-13.78562642820934,0.49867439149176107,-13.428188921520203,11.898894425443189,-2.7039216313843895,-1.9073343854973928,2.1227281269903813,10.186691719904061,7.686206919283082,0,0,0,0,0,0,0,0,0,0,0,0,0,0,0,0,
238,-9.785420777926493,-11.978675545869535,-7.814936079325598,-9.266073660863572,-12.357204952757137,-14.375598144395148,2.4802531559328678,-13.209931439898877,-0.308067032449145,-10.755093068131089,13.966222619558962,-5.272118027216834,-0.00035412403893531064,2.909247189655872,8.946523137662638,-0.29615013973689486,0,0,0,0,0,0,0,0,0,0,0,0,0,0,0,0,
239,-9.832562422247838,-11.264872334956184,-11.37888202181297,-10.778725175691857,-11.085367329294588,-12.625157448484693,-2.5026563860635545,-7.744515359969262,-5.065198367842143,-10.311178893495892,11.132681977717311,-11.806485117143609,-3.2051923829018705,0.11717972976772728,-1.8443050824483862,-11.790824969879514,0,0,0,0,0,0,0,0,0,0,0,0,0,0,0,0,
240,-3.58814218552361,-13.648578463547098,-5.051396405159505,-15.561212470901854,-3.3989694613696635,-11.074462447755828,-4.775249826839504,-13.369008215867934,-5.4310458042670575,-7.582176818525298,5.858001098720479,-9.73427030233691,-4.51449428919544,4.157295126807838,-8.399159366318827,-4.084862512263017,0,0,0,0,0,0,0,0,0,0,0,0,0,0,0,0,
241,1.3844869098129564,-15.15122092933984,-0.19756368201440466,-8.620168802200116,-2.54934640660894,-9.685002943657587,-3.2473308240406737,-15.56625175244444,-2.6966654408510635,-4.8825330437851875,13.551879036844085,-4.5695437704750645,-2.726876060165111,7.921265923146393,-9.328646960558643,4.743224172293888,0,0,0,0,0,0,0,0,0,0,0,0,0,0,0,0,
242,-0.021574933056889734,-13.22009671461862,-6.1896719178471855,-2.2441710565494475,-10.294453163332086,-9.495387021357786,-6.933371984669499,-7.016316464722763,-4.029375949825237,-3.364813097514002,15.223910052510405,-5.139146678778758,-1.72819055776759,6.5380358432170596,-9.94682979573139,-5.326535050688495,0,0,0,0,0,0,0,0,0,0,0,0,0,0,0,0,
243,-6.944065174784711,-10.67368989356055,-11.79489439595325,-7.584441242937203,-10.864876848743847,-7.231471713709453,-10.445686501272178,2.25584051449178,-6.407354989167359,-0.03792063410305957,7.737543859334437,-2.715568828001267,-2.7805731451181686,10.919967636905724,-8.950040664391707,-5.632603508946568,0,0,0,0,0,0,0,0,0,0,0,0,0,0,0,0,
244,-8.669453079214676,-6.6994236274035615,-10.749621455977916,-8.057381484590067,-6.6807430034967865,-5.326961158640387,-13.090508542744928,6.576678301695324,-8.191980379245138,3.9494022530719093,10.28384564701058,2.4016926712348123,-2.9162223346277614,17.553165084480213,-8.118347107244048,-0.8465334883271476,0,0,0,0,0,0,0,0,0,0,0,0,0,0,0,0,
245,-2.256980407355911,-2.6431063946007214,-7.898812003117229,-2.1952570386797703,-6.207289286056934,-6.199719459248712,-14.458077148868071,-6.169449033237029,-9.435356078701787,0.48189789649879344,8.506767654774904,-0.9034999889191937,-2.31359523623442,15.429755049606385,-6.7691503837856715,-5.094893913061469,0,0,0,0,0,0,0,0,0,0,0,0,0,0,0,0,
246,1.0919892816497736,-0.4750225839798645,-2.630821581254537,1.7189597905503575,-4.008979911016112,-5.544963144698414,-7.704518378045876,-16.466379629445186,-9.198949400801865,-2.104427680014382,4.043397955984787,-0.715379484097781,0.8876294096351529,14.358551957293898,-7.364123711877873,-2.6711484063986037,0,0,0,0,0,0,0,0,0,0,0,0,0,0,0,0,
247,0.6109190512718499,1.5484759093044715,-0.1188076024515965,2.4968677219543167,-1.698381156298609,-3.6385229384010103,-1.1639514350786726,-9.088700901446003,-3.374695249224729,0.5860358191818307,12.630880032120658,-0.22263378046527293,6.8875577082199015,14.033423436578673,-2.1177014819881634,-0.39747427928530676,0,0,0,0,0,0,0,0,0,0,0,0,0,0,0,0,
248,3.0583737549370653,3.1667276077706674,-1.4334723005154046,0.6393445335316414,-1.8656224432457122,-1.2196832553067054,0.06070385334925277,-7.813219381242945,0.050509176464728966,2.2097328418961553,24.422773401219743,-3.189220039847754,10.087707050971332,11.928890644521296,7.826301285868972,0.36081921087938795,0,0,0,0,0,0,0,0,0,0,0,0,0,0,0,0,
249,4.8775557428961065,4.8885919476258834,-0.8101861759112694,5.867889597556058,-0.5656554896593775,2.776568377437002,1.2846848402234343,-7.229820860104624,-0.11959045920381328,3.5570473593893865,23.655245150243374,-0.020159863551441504,6.3864713764983705,11.956349715107748,2.160691699500209,5.99945561908276,0,0,0,0,0,0,0,0,0,0,0,0,0,0,0,0,
250,0.3589177120054501,5.898556353727599,-3.381729338571688,12.04962705858,0.12094520620615867,4.813200704077644,-0.7844217897497572,-0.7746057355314804,0.5527497965687402,7.453350300670408,18.19723551472239,3.4311297908078338,7.149902483867185,13.109191711226053,1.3736411756958908,6.822521015965407,0,0,0,0,0,0,0,0,0,0,0,0,0,0,0,0,
251,-7.592048313728355,-0.7350258965745695,-12.35151104079796,3.157844627899692,-6.376270403083794,0.6000383585417524,-10.5644090386931,-5.454005558643075,0.2658577763552259,5.957374112240302,10.869394941699058,-2.941283305849307,6.833646783374851,9.750581237403834,5.255179972221178,2.9799655636251607,0,0,0,0,0,0,0,0,0,0,0,0,0,0,0,0,
252,-7.323498685685735,-4.88874433737837,-12.175842243829521,-1.4551865608383423,-9.392663251385954,-0.9517670949924764,-11.346345085711619,-2.321626053611851,-1.8792735370307536,4.941331030062029,-0.40937778854210016,-2.021506118103222,-0.13558032114169372,8.928981648796258,-8.437836073543718,0.8587630711481573,0,0,0,0,0,0,0,0,0,0,0,0,0,0,0,0,
253,-7.876745966321778,-4.366226870262352,-7.553627184355861,2.7802462408414215,-7.886926205689463,-1.6331519561154266,-2.3986185024087376,5.909735944551386,-1.5291664016100643,5.508869173732588,-4.697005614720773,2.9715682343056784,0.3313467241394541,11.253019835198929,-8.88716964228836,2.969335852864395,0,0,0,0,0,0,0,0,0,0,0,0,0,0,0,0,
254,-6.815295383031952,0.4056971919364116,-2.031721137404787,7.528043457843921,-4.526460326263788,-0.31015046350859166,5.694756736519196,3.7740075293576183,-0.5582163556708224,2.489934008904207,3.551756173142266,0.021242188505283366,4.685608921337369,9.684650970263633,5.501128805133142,7.06893990555789,0,0,0,0,0,0,0,0,0,0,0,0,0,0,0,0,
255,-0.6849000342312195,6.760338721608235,2.541513731487015,11.019046331709461,-0.4157849659593751,4.050412914683591,5.623944545303374,6.473001465959456,1.492626567166333,2.685276221292227,10.889910582528607,1.8953156564753613,0.5524685696545717,6.5181843796816,-4.19328570207994,5.800761564606377,0,0,0,0,0,0,0,0,0,0,0,0,0,0,0,0,
256,2.1394651407833294,8.876336461423449,2.3148797800202487,10.00977552086647,2.2680943157832303,5.067516563751923,0.1007339964326377,10.764888237286627,4.776226605855271,2.6507013262212737,7.000434752291369,3.5392273696142382,-1.7609293982011849,3.9971328701696436,-12.563288774123066,4.945708836912653,0,0,0,0,0,0,0,0,0,0,0,0,0,0,0,0,
257,3.386125162510467,8.117805386109438,5.014740633219446,7.261963857916697,2.9965926196361465,4.0060430255233825,-0.6015711601861256,4.758106731714875,5.090712227934276,-0.6600387492017887,0.3945455356238199,-1.3461200637242854,0.6976587770681135,1.143806447280184,-2.164211601475216,10.827982649757233,0,0,0,0,0,0,0,0,0,0,0,0,0,0,0,0,
258,7.709666988581077,9.138998842509253,9.561643429805088,8.493969390840803,5.272946405720674,5.697232866199954,5.827083474271532,5.881900046797654,5.557395865917684,1.1639006876063718,0.8198478739012671,-1.9592483070963311,1.0580063030478328,-1.2159626692683503,-1.0262202763565824,10.602851049648333,0,0,0,0,0,0,0,0,0,0,0,0,0,0,0,0,
259,10.568863757241445,11.310834722478319,10.999011965128375,11.906617845124103,8.454760643973643,7.490148361079775,10.777315427128528,7.194892501056117,9.19989601058613,2.530521214495451,5.088541671870459,-4.684923401452892,3.5297052201031818,-4.407464839754709,-3.3042176502195417,2.1335370810478675,0,0,0,0,0,0,0,0,0,0,0,0,0,0,0,0,
260,15.702244106519728,18.357870488876586,18.723079997546385,19.109203283840074,13.933083742345218,12.7207952527326,14.886734653538099,7.035709288632852,10.079635310516451,1.4108501184837081,6.656897213469335,-4.869521164761167,4.4333013669902215,-5.746407518174394,-6.475735081614815,3.0486979727815484,0,0,0,0,0,0,0,0,0,0,0,0,0,0,0,0,
261,9.536839916231848,13.143400801054192,14.48355567345051,13.87050473890482,8.87980865887463,9.681253725418856,9.338541973436378,10.248066863852294,6.461991606146526,3.6671471847586616,1.538255189159031,3.861704616541573,1.9787283995996887,-1.6377279897193802,-10.084287151198566,10.731914912811316,0,0,0,0,0,0,0,0,0,0,0,0,0,0,0,0,
262,-2.3694638685737175,1.4478138578376303,2.7967142917390753,2.9321378717975364,1.9497636558830678,2.698226598757117,3.879964274114389,3.7914253352998024,3.1850173988855346,1.23447485883527,-0.9623399827957542,0.957770042021906,3.7398465667080956,-0.4135764847777921,0.9584335725731421,11.552569499883184,0,0,0,0,0,0,0,0,0,0,0,0,0,0,0,0,
263,0.4134737758235367,4.923750351342601,8.335608254514844,5.281376363226937,6.054607404281752,5.015052656456294,9.317393553297432,-1.0317619543603271,2.1560945904104756,-0.12763976868977522,11.794091922904556,-2.638398531295138,8.781447037528892,-1.3427651183589973,10.475815719889752,10.969267276235751,0,0,0,0,0,0,0,0,0,0,0,0,0,0,0,0,
264,7.107256378835945,9.835503705354027,16.97290002811882,6.0688381224270564,7.308213754448774,7.234906285453313,10.534175580371794,6.397831855875941,3.9543524402824204,4.728010399154428,16.008453493528748,2.44258780517211,7.788010496111241,-1.364230126666726,3.0105724873278774,9.67662621427629,0,0,0,0,0,0,0,0,0,0,0,0,0,0,0,0,
265,1.9948566603786944,1.0207232068320948,12.024051051555986,-2.929650315328921,1.8611566292521928,1.1964425743062037,4.1274698826114715,4.620387043980987,3.425136568199804,6.633957123827344,6.042003535275427,0.4052157774322609,4.981913833351825,-3.3994308986050186,-3.8524776863545185,3.3914269008498694,0,0,0,0,0,0,0,0,0,0,0,0,0,0,0,0,
266,-0.7307909230277758,-3.0374862396913898,12.12391307238466,-6.489362931048497,2.891399157389351,-3.6128821785813585,6.62850334238469,-5.665164944067328,2.6663522221901843,4.157136119875474,4.416620625859082,-2.7203242438610005,5.1169476247287236,-6.619030784104339,-3.4607779846734843,2.2912585505245513,0,0,0,0,0,0,0,0,0,0,0,0,0,0,0,0,
267,2.169768636758917,0.06325543117384314,20.319596212909886,-5.520218798424224,6.207527502649896,-3.263863221313315,13.152404912480918,-8.047444163412344,3.129936151152819,3.6191769105434446,9.101085429825531,-1.2283867032551257,7.17056632663882,-8.087765773367607,-4.510150589594971,-1.2175307779740043,0,0,0,0,0,0,0,0,0,0,0,0,0,0,0,0,
268,-1.4514228114239103,-3.722534860853756,16.160473580146032,-4.601434851244434,2.073061233049387,-4.62305865525866,7.888579460838741,-7.0397131266318524,2.3900916303609137,1.4093442243503205,6.735959580886572,-4.318031986174475,7.391945789517408,-9.934602878260705,-7.801402246294003,-3.9210626793563605,0,0,0,0,0,0,0,0,0,0,0,0,0,0,0,0,
269,-2.382395106129451,-4.423466152687169,9.521267954672055,-5.575175756503356,-1.5556634139424546,-6.886269154337398,-0.5910492018731617,-7.188200982599554,-1.2307415228618623,-0.19908252744855304,4.307512081515043,-1.6774371425094472,7.773430044799156,-8.55901581570923,-0.9579548444847177,8.429765288830222,0,0,0,0,0,0,0,0,0,0,0,0,0,0,0,0,
270,5.174122694589954,3.1151963677764627,15.240224199805837,-4.4478304682600935,2.3234889705223054,-4.681250815824924,3.7449325410743626,1.6960546963615144,-0.3012646391198359,0.5406137375214257,2.709992100016777,0.9205052846926094,8.120566168629125,-9.212815398375213,5.3267787359067285,7.933190674981111,0,0,0,0,0,0,0,0,0,0,0,0,0,0,0,0,
271,4.293853899253662,3.3106177076357994,14.670004352671072,2.058170293154049,0.7016927640549682,-4.0101682694304515,6.262777842095602,3.070857613753958,0.2600026199662864,3.1118172704131553,1.8701119012803957,0.038899060905450256,8.63396886513982,-9.633917012280392,0.5343202912693954,-1.7376743649013937,0,0,0,0,0,0,0,0,0,0,0,0,0,0,0,0,
272,-5.230039631230028,-3.0766966468775365,5.556510630990971,-1.4650665047258826,-7.627470190494307,-7.382747947357984,0.5584565947332862,-12.82216490579151,-4.607117379686869,3.0911336345165523,4.152689326739996,3.0695200033978267,5.154693737205683,-8.123930298917031,-7.428197639988419,6.901918134911318,0,0,0,0,0,0,0,0,0,0,0,0,0,0,0,0,
273,-7.258563714580703,-2.181936714884216,6.524062437498458,-3.6284134160504777,-7.277619532147753,-5.693739895915343,5.2751236189386645,-6.49359362341329,-7.118558372647577,2.700096789460922,10.155555566027363,9.579799132939065,3.5490583609454376,-8.147979195289942,-5.871725366604338,12.148347171874398,0,0,0,0,0,0,0,0,0,0,0,0,0,0,0,0,
274,-4.430791832502621,2.5406677174490255,9.855326314934047,3.5293904104935905,-3.980359840285587,-0.398224078322329,5.3367618694232135,12.94957690997856,-3.690864170125188,3.958648616318822,9.400630780742741,11.371161925184182,5.81754851101315,-9.24650019148255,-0.8545095946372783,7.529695040015644,0,0,0,0,0,0,0,0,0,0,0,0,0,0,0,0,
275,0.18208069368026258,6.33749798263247,11.63859869695159,2.7645565075669367,-1.45300412058117,3.6687830567551316,0.4685093909592979,14.072122926178878,-1.27807185417684,7.564078446487496,3.9483134256254937,10.76262614706986,6.074272952718999,-8.055899196801038,-4.122396606882056,4.020832335481492,0,0,0,0,0,0,0,0,0,0,0,0,0,0,0,0,
276,4.845630289864573,8.946427435241219,14.02349812064918,5.028931620819293,1.8339956091292606,5.330689889122652,5.413004949474271,13.793750758806425,1.5819244158445347,9.389475680993781,0.9500254588766488,12.494867769760404,5.555121141048373,-6.9659381129856275,-4.98211719482423,2.510740432223857,0,0,0,0,0,0,0,0,0,0,0,0,0,0,0,0,
277,6.9951362424848185,11.898956504470533,14.546738236844135,13.801691042335136,3.4889144081467123,6.069997295652769,7.5535475649483885,6.348742970421426,2.983601411533715,6.18266689103681,-1.5173801229683868,12.166935880113932,5.73298959557464,-8.48658515672529,-1.1849312719447163,8.295080241426161,0,0,0,0,0,0,0,0,0,0,0,0,0,0,0,0,
278,2.3657599157423874,7.273779618075508,12.067624553529129,7.77736457584848,-0.4060416256035069,1.6770657927226296,6.004762264034696,-8.526272245541762,3.078514456065328,2.480234169531677,3.768097921357139,5.557139991462655,6.233706120827556,-12.700872836336025,0.7666645801322929,9.248876560993878,0,0,0,0,0,0,0,0,0,0,0,0,0,0,0,0,
279,1.0700430509186276,3.525752133375846,11.685847606311853,6.021598209319592,-2.138768506295321,1.891338408765506,11.801609935296028,2.670975266684735,4.25661187893499,1.8379675890039806,13.218015928222776,1.585318068030098,7.996403607286439,-15.789222800821399,5.096751733814884,2.313409507943815,0,0,0,0,0,0,0,0,0,0,0,0,0,0,0,0,
280,5.180251490627484,6.247293952319723,10.690709275013575,13.788994465854941,-0.44295348607693086,7.179616074886951,10.505957257140068,9.275158046815406,1.8302826502824985,0.7339395612238349,5.141762071041455,2.7909862078815735,3.5725694839533233,-17.801309437364175,-1.1935765776024354,2.6418613246641787,0,0,0,0,0,0,0,0,0,0,0,0,0,0,0,0,
281,6.10203127735366,8.497649949367442,9.738636723347284,12.393760007274423,2.469665569398771,7.41574865023793,2.096108523097925,1.1172081841104529,-0.2549468112965343,-1.0320387582764283,-9.930686381759017,3.9138091093827825,-3.0170134547157517,-20.572256493436882,-13.644729723231826,5.073644688483487,0,0,0,0,0,0,0,0,0,0,0,0,0,0,0,0,
282,0.8980168728879505,8.993283121933274,9.232584609808669,5.903440433260087,3.4258634527644602,4.751748096563958,-0.9868812278900236,6.332911211001985,4.094880821663892,-3.4686482742299916,-10.522231726915464,2.392464253723844,-2.5946105670856667,-22.671632406475,-12.999294053316191,2.3945002161868114,0,0,0,0,0,0,0,0,0,0,0,0,0,0,0,0,
283,-1.4910548240359986,9.112187220894171,7.721041665681469,6.767840354438562,1.9910090437629293,4.75090897754265,0.967493055775833,8.023630805485226,5.531165874197157,-6.040442257048326,-8.683122237958415,-3.360603008559039,-1.9084990717819892,-21.626315803207433,-10.68979847460669,1.3609979283680609,0,0,0,0,0,0,0,0,0,0,0,0,0,0,0,0,
284,-4.044691285422061,2.3962096592899087,2.405656344625413,4.692341064590551,-2.8227474830675305,2.7644379715666076,-5.232161310475178,-1.901877397973827,0.8162960094001619,-5.2850634514258275,-14.585452163041978,-8.785309846060727,-3.268594059868306,-18.875746450253473,-10.37419008622848,0.09809027842401008,0,0,0,0,0,0,0,0,0,0,0,0,0,0,0,0,
285,-3.542353392686408,0.5625848037442367,2.3749540954659523,-0.9027594720177845,-2.628261147032539,3.6764975836624956,-9.05766005234777,2.4833066598935787,-2.6148413330745512,-4.052341665029729,-15.907576989219137,-7.88049513135843,-6.419306027810094,-19.69287542774346,-12.181209018481823,-2.6582593409947304,0,0,0,0,0,0,0,0,0,0,0,0,0,0,0,0,
286,-0.2873989970696158,2.911773784786263,4.407581734197816,-3.0570270349923305,-0.4887650140985329,2.2421597612889705,-3.061022207498148,4.028744642672098,-2.8579615161194596,-3.6687737737290576,-6.865853595431986,-4.824418912884141,-8.523838113231548,-21.732056965316232,-20.775212500418405,-4.457344005901984,0,0,0,0,0,0,0,0,0,0,0,0,0,0,0,0,
287,-3.1303555519671917,-1.6781470896582888,2.496622143261595,-3.494488988339583,-3.126280414213433,-4.638372488832335,-0.28463342322832474,-10.387947055484043,-1.1593834098790978,-4.906665596496609,-1.9026778684787757,-9.981311267689108,-3.875366559284231,-23.05080265220022,-18.464048305759476,-6.382143256237809,0,0,0,0,0,0,0,0,0,0,0,0,0,0,0,0,
288,-8.153040716839847,-5.056414063947573,-1.2815256794344592,-2.845010892529615,-6.9855448523869015,-5.963590282325797,-6.085379437438133,-14.03905574348444,-2.575633892422829,-4.773298856674998,-1.8028345586194519,-12.016741386563723,2.7298431232965186,-20.345683502462222,-3.1253511506771616,-2.582980844878916,0,0,0,0,0,0,0,0,0,0,0,0,0,0,0,0,
289,-8.370753224920875,-0.4118454148492532,-5.7716240817731475,0.15959869112338154,-8.773502296229935,-3.3202793566989186,-9.303752441024635,-5.1502997156154535,-5.270870967762718,-2.9354420369518834,-2.465754137529217,-5.912555122167021,2.6866155115033763,-16.293456851681412,2.454577978731564,6.202446295760935,0,0,0,0,0,0,0,0,0,0,0,0,0,0,0,0,
290,-9.204808827139175,-0.7228764233811233,-5.671248211630818,0.40225375095685223,-9.733546667204337,-5.1927274567178685,-8.042016309460472,1.6648618310521215,-7.239882015728611,-1.6555649451997567,-2.220828599482772,-3.15081128920545,2.699565259450978,-16.056075411065166,0.34185526270869104,5.074278173455892,0,0,0,0,0,0,0,0,0,0,0,0,0,0,0,0,
291,-7.561013637102334,-3.2405125847436125,-0.6761300659517673,-0.3330824825336549,-7.133570587655839,-4.180187076254285,-8.092745327581241,2.5058743002544404,-4.954191815358712,-0.9991381335256193,-4.185491610610029,-1.5438115028125878,3.788122561881792,-15.53330002153038,-2.176811579660537,-0.8493648607250508,0,0,0,0,0,0,0,0,0,0,0,0,0,0,0,0,
292,-6.362159444132942,-2.0209867347190738,-2.726886277482251,-1.2666258388333063,-6.0155411140552815,-3.7602013259928526,-9.87300273126337,-3.0538752409382965,-2.716221735071045,2.67739163130004,-8.572829057678916,7.559384940599813,3.3352202439832723,-9.35764950305078,-4.603940291849526,3.6295419720893918,0,0,0,0,0,0,0,0,0,0,0,0,0,0,0,0,
293,-7.871874037828675,-1.7647927380617574,-5.56866171993822,-1.0484920628745016,-7.807956955503087,-7.405071083951924,-9.951743934199271,-1.662402565059196,-3.6936453885360407,2.603905008182352,-3.9487704330673097,5.7923611717124,0.29999504399442856,-11.001739608256216,-7.806692829467053,3.796888324810924,0,0,0,0,0,0,0,0,0,0,0,0,0,0,0,0,
294,-8.065314484687661,-3.315357598415048,-4.2423276839453905,0.2640972869314595,-9.390234097946148,-6.80173453636877,-10.052005911328678,-0.8834105077631733,-6.442653030434016,0.9187728625689857,7.0012964317523085,0.054093219364304446,-0.7180865964339915,-14.649703578815988,-4.682336001284597,-1.4136794185419221,0,0,0,0,0,0,0,0,0,0,0,0,0,0,0,0,
295,-8.92168026164353,-7.491752818917234,-7.2632964025704325,-1.6141906528005023,-11.677145568473918,-5.772435117915123,-9.790865076303561,-8.634379466485925,-8.586545311471312,1.2633702794312853,3.7560595228498244,3.62050404070645,0.7594859054865566,-12.085756783608275,-1.6129758828004839,-1.2082449494266863,0,0,0,0,0,0,0,0,0,0,0,0,0,0,0,0,
296,-7.811862046357845,-7.758383040898536,-8.970123845189022,-3.7712512605657196,-10.91605272166177,-6.054890136599994,-8.609002329007012,-7.068458652335622,-9.824942880328479,2.1033684501515566,-0.7361164849455761,4.938844451100337,2.458205200985688,-11.195222643242857,-9.742785392159625,-6.913457289360727,0,0,0,0,0,0,0,0,0,0,0,0,0,0,0,0,
297,-9.57257446614662,-3.957087649028921,-9.705513887706331,-5.340273401521557,-11.144888645832651,-6.603999081402037,-9.957857662757618,-4.57967605516798,-9.217327367491293,2.1598955028596905,-0.3811968210746741,4.626757446777525,1.813921535387479,-9.379535572173083,-11.356242494664986,0.6262953431184277,0,0,0,0,0,0,0,0,0,0,0,0,0,0,0,0,
298,-9.460930403016505,-0.8195044331143606,-7.137115777391358,-1.9426445664038,-9.446881264572454,-5.793699725803378,-4.468694978062246,-5.827732795238205,-8.890193125623036,1.839192160687908,-2.2916249316867194,2.2986539519119376,2.330144205459998,-6.854672129101296,2.0244398240221937,8.187151204448975,0,0,0,0,0,0,0,0,0,0,0,0,0,0,0,0,
299,-7.553085079151458,-2.0671844196029667,-5.094270499578528,-0.029459801325543822,-6.51039509765144,-5.2808929041963495,-0.5458411514037778,-3.6367841648335,-6.02136702869317,1.096235739199674,-6.693677290113209,-3.920705145753061,0.32601185573871483,-8.899286318905192,-0.9510569344147135,-7.117014106825456,0,0,0,0,0,0,0,0,0,0,0,0,0,0,0,0,
300,-9.711370475027877,-5.157344935284669,-9.696163043125125,-5.620357512797341,-6.872350836621166,-6.67199539734068,-5.884105670132527,-3.3049110866014075,-5.926725956473403,1.86826554870701,-8.387022539106347,1.478586559233348,-1.2951603435419123,-3.592907207819662,-4.928605968100134,0.006370913351011254,0,0,0,0,0,0,0,0,0,0,0,0,0,0,0,0,
301,-4.572014564739959,-1.7302611643424655,-6.017224597511927,-4.702056587745346,-3.2068875064833833,-4.7405937946795405,-6.123022366867616,-2.7289353431058885,-6.383680626465749,-0.3166331260578019,-1.0121100442605133,1.2703318687334697,2.0905942656263754,-0.8963351192536226,6.548103186254341,7.151489056683122,0,0,0,0,0,0,0,0,0,0,0,0,0,0,0,0,
302,-0.5488394091178748,3.8703062120437153,0.04273907142911071,2.8165005731422923,2.0911597747067674,-0.4783085939003229,-1.2657615126751693,-1.4467188667743756,-1.619520889272188,-2.6900436495245827,1.415238617190397,-9.162533164292931,0.8019457293261283,-8.093112662752382,-2.176504235050423,-12.919787752442987,0,0,0,0,0,0,0,0,0,0,0,0,0,0,0,0,
303,-8.57979131611674,-0.5255899144235343,-7.316387855704846,-0.9371253146275649,-2.154156912558051,-3.881135899610399,-2.2917245986326122,-6.784137171527789,-0.5859790435435954,-4.6866772231001335,-8.041137864742495,-10.587417953123705,-4.587228234391517,-11.90954440518044,-13.260690364695357,-11.289295214368224,0,0,0,0,0,0,0,0,0,0,0,0,0,0,0,0,
304,-1.4697134524628552,2.513183692838595,-1.677573207936348,1.0198715734353954,1.4752496298091842,-3.203714128379275,1.3892551400296327,-5.27220865790035,-1.9759866128005186,-6.610271508601841,-12.038242032749139,-5.338787478431627,-4.685104696040369,-11.568095850413599,-9.522562964536405,-0.7082004281577454,0,0,0,0,0,0,0,0,0,0,0,0,0,0,0,0,
305,6.327648304898901,8.673000969325301,7.293884014380481,5.81136103445327,8.797352129837094,0.20210050565073345,4.813691352527854,-3.019687568469891,0.8183645817655147,-5.093003227406342,-12.009589149067807,-3.637640641148991,-4.160037779495113,-12.971439415903532,-15.43043535866984,-8.312584478263869,0,0,0,0,0,0,0,0,0,0,0,0,0,0,0,0,
306,0.8648014872371874,4.718053715688939,0.6405680111465983,-2.781846777866164,3.8273610545956416,-0.8016625321962607,2.957995039634085,-6.143217468739266,-0.3055541370547985,-5.84275864637074,-10.590258775509042,-5.618603115724483,-4.979332035251943,-15.349445960364292,-16.4121482387216,-13.412905649331986,0,0,0,0,0,0,0,0,0,0,0,0,0,0,0,0,
307,-4.579770936821447,-1.6745050919579683,-6.518525071744463,-6.372499835199761,-4.492938378132848,-3.0754098760056365,-1.1358673776920938,-1.882289550370217,-2.1936445461076204,-6.592498829407035,-6.125114044488697,-3.2181096136638274,-3.5328916012170595,-13.225901122836746,-12.202489368109838,-12.301575008079865,0,0,0,0,0,0,0,0,0,0,0,0,0,0,0,0,
308,-6.606188370695548,-3.705263527211912,-7.800965803865893,-3.6730731702771635,-3.683376726258288,-4.940344809327698,-2.4302200448503584,2.0882296161859273,-0.3352573629263986,-5.623791969567776,-11.25991333814369,-4.1415289868276375,-3.455690028471139,-10.497109066923016,-13.818292675009602,-13.124651523747504,0,0,0,0,0,0,0,0,0,0,0,0,0,0,0,0,
309,-3.631589627074675,-2.4480592209645664,-7.543915539490861,-8.595790530544235,-0.26364471488957975,-4.8174081212678885,0.1794186690041215,-4.759605959372941,-0.4438329576834832,-7.248858178232538,-17.599888903487454,-11.997874021603963,-3.9366268017302986,-12.313965873719624,-7.102788853714884,-17.229303973189122,0,0,0,0,0,0,0,0,0,0,0,0,0,0,0,0,
310,2.7921792493345805,2.2002437610118193,-4.612248640237954,-4.614580215555684,1.6558216202184575,-1.2939943581871383,2.593751028709036,-0.007327873287465536,1.4491569536717037,-5.79934058799563,-11.509066372691336,-15.529250446637377,-4.496409646273776,-13.626688087064622,-7.087175584533426,-24.435086264333567,0,0,0,0,0,0,0,0,0,0,0,0,0,0,0,0,
311,-4.289455836952495,-3.6328469284994256,-11.760405485975381,-4.76088289308281,-5.385494718859903,-6.102541443499447,-3.4851312283309,5.179470416465337,1.2834104692107644,-2.638406977820793,-2.194945244040042,-11.328816794138021,-4.376593730443375,-10.44400223364805,-10.418858950640768,-21.680200528856993,0,0,0,0,0,0,0,0,0,0,0,0,0,0,0,0,
312,-14.524427098754597,-11.49035061004994,-19.65910440790573,-10.254595177231874,-12.490487029475728,-9.92998501579447,-7.051301316441638,-6.929283478701459,-5.0299433623977166,-5.045603801951714,-2.578302339046843,-2.076447248628483,-2.0707311970513587,-6.08780024803319,1.5298185730796376,-1.701862684606823,0,0,0,0,0,0,0,0,0,0,0,0,0,0,0,0,
313,-14.281142917725905,-8.95241481855518,-16.097534373651843,-0.768222140171158,-10.815180938712476,-4.95056352858715,-5.159503251978023,-12.02436673351638,-7.668355773766422,-3.239117116022996,-2.7175849711101137,1.6299275557117312,1.7649296691442515,-4.014717737994943,6.351953819332053,-0.024537187210016853,0,0,0,0,0,0,0,0,0,0,0,0,0,0,0,0,
314,-13.387621758759401,-7.902242464379491,-16.67483615839376,2.000384071909785,-11.810647130639843,-4.209405243136942,-11.798948169328241,-7.206105913351799,-6.131549257495678,-0.06515365007288665,-3.243413156016601,-2.9197225721061955,1.1906852786104025,-5.077208922069687,-1.0040437089238878,-11.787458872608166,0,0,0,0,0,0,0,0,0,0,0,0,0,0,0,0,
315,-12.734349577137365,-8.268233141309963,-19.92898131290613,-7.255021071429837,-12.710650864308818,-5.3393838477993825,-14.7679122389994,-8.915563503508679,-9.811538363563045,0.5400778150639525,-8.247304124007243,2.1004170028818123,-1.4715132124263022,-2.557939849156867,-0.020628027589026487,-4.149064122495062,0,0,0,0,0,0,0,0,0,0,0,0,0,0,0,0,
316,-9.812997039256842,-4.560498529337437,-16.621494273441655,-5.584425905832674,-9.389358065547427,-2.9843146807805567,-9.932126770480181,-8.747635213935638,-9.423913677371033,2.0095442200640576,-5.999904182433568,2.72360587802595,-1.7044220078533527,-3.611720968958494,-2.2218282025659732,-9.904107792342815,0,0,0,0,0,0,0,0,0,0,0,0,0,0,0,0,
317,-8.244616019509436,-1.4301056645073231,-12.73655334866173,-0.8736325391159028,-8.503974963616812,-1.710825598073285,-12.047821625043099,-4.012918003901817,-6.910086407390622,5.027949544323377,-5.645978901989196,-1.2673997682240383,-0.271467097510822,-5.3721590857210515,-6.2761531688660455,-22.729106008548328,0,0,0,0,0,0,0,0,0,0,0,0,0,0,0,0,
318,-2.8226472050905755,3.2616354553738063,-8.837562096273317,-3.1772254167407823,-4.555814514190175,-0.004616438081100682,-7.865300352844528,-3.890484609143101,-7.05199941639269,6.996098809162078,-14.275287176843165,2.883832970637144,-3.021866472799573,-3.1194913826133046,-5.377749303730383,-14.259859727152971,0,0,0,0,0,0,0,0,0,0,0,0,0,0,0,0,
319,3.164804355659527,8.60343789963946,-5.7517935097874044,-3.0801893490575196,2.1633969322772373,1.5430701390107089,2.5187879111745133,-5.181929890756621,-5.30192428498664,6.105415002403831,-2.460057293176007,3.1713786681886376,-1.821091652600785,-5.775898663516941,-6.5352459408677674,-16.670126457864455,0,0,0,0,0,0,0,0,0,0,0,0,0,0,0,0,
320,5.7816191332016444,13.559060468559892,-2.2636955644192085,3.352900010075075,7.685128024286854,3.8056905768422666,8.08234478341862,-2.858611575734514,-0.3689166384513527,2.120938671910281,14.137953362142305,-1.528385312295299,3.789014297951141,-11.034759259974749,-2.979011885033799,-25.519804713153984,0,0,0,0,0,0,0,0,0,0,0,0,0,0,0,0,
321,6.1786416585729,14.65585874520599,-3.119332576445345,3.611105276947484,7.195106056458286,4.387610674948007,5.450605383628215,-2.675699894991368,0.10207473694095626,2.182066059039329,10.497533504537849,2.488495031406032,4.3138661309085435,-8.286093313412628,2.0042603105909578,-18.270879470567966,0,0,0,0,0,0,0,0,0,0,0,0,0,0,0,0,
322,1.1430585567380263,7.736350468117848,-10.407478467477688,-0.02459755720840917,-2.394300596234018,-1.4470410203928452,-7.9841647837587,-6.216859218298396,-3.121990549349519,0.8472412072347097,0.5808933016740347,4.392924790095073,0.32721446455119363,-7.318348055294486,-8.536537054810303,-9.80611037223986,0,0,0,0,0,0,0,0,0,0,0,0,0,0,0,0,
323,1.4833991192065241,6.8037153301870035,-6.328591241680925,7.165228997210448,-3.201469214063394,-1.6382551551650124,-8.257620524762643,-1.5223198011347847,-4.179710343618442,-0.7589694212450766,-4.487245584538763,0.07481406642986244,-0.5630166594710699,-9.908107408673626,-15.807072548645223,-10.235653193576127,0,0,0,0,0,0,0,0,0,0,0,0,0,0,0,0,
324,8.081582784096383,8.485125627128298,-0.010294104338612442,2.23629337272493,1.1134319031520477,1.7354305235846823,-1.9773911400163797,1.467563306646582,-3.362419730900628,-0.3165789230291325,-6.112978556961547,-5.784906120636438,-1.8334629115769037,-11.634335769952962,-7.400325486106004,-13.513531449217705,0,0,0,0,0,0,0,0,0,0,0,0,0,0,0,0,
325,15.104097025240577,11.411160324305882,2.357059040848725,-4.709722526818183,3.0156597687291367,3.8864345891587675,-1.5753772243501203,-2.924937075777649,-4.420549536322808,-1.3058088185471242,-7.170021035433763,-8.915993135627392,-2.5094938817222676,-11.015618505606433,3.6366273786260024,-9.167116168197452,0,0,0,0,0,0,0,0,0,0,0,0,0,0,0,0,
326,9.189955485993323,12.725438126822752,0.3635421135060142,3.29682679030941,1.350629347512239,2.5528944039771773,2.85760887960015,-2.9843221761427117,-4.512893583109609,-2.3272055430549123,-9.865481485523524,-5.189659680308765,-2.526659729698224,-7.6405833651316435,5.042203829022277,1.064112322147622,0,0,0,0,0,0,0,0,0,0,0,0,0,0,0,0,
327,2.9281882065178024,10.90415553066498,-0.6518915880108409,3.9217103914929226,0.927944676495855,0.494358552009146,7.415928663220825,2.9569112562770385,-2.613775519508785,-4.837497334817151,-2.761767113203476,-4.412933585086975,-4.13264639376186,-7.6721622436988,-2.6991770849844983,0.29113549319818155,0,0,0,0,0,0,0,0,0,0,0,0,0,0,0,0,
328,13.578274804053393,16.080642998902903,10.102210885307699,3.367439309342231,8.061304798761938,4.31704308320333,8.438813719683793,9.546165004262988,3.564417223093251,-6.299588367290198,6.728781416805404,-9.615488665428614,-1.932500442853808,-10.904180399663687,-7.819979242371495,-12.004989824040567,0,0,0,0,0,0,0,0,0,0,0,0,0,0,0,0,
329,19.074760261043252,21.62209895224595,13.475864980866916,11.783855490417523,11.671459816129541,10.862478231012233,10.777993501288961,7.887278972004751,6.717865775787054,-2.9237268796158418,0.015697220164398118,-5.759038609645188,-1.5446161310099313,-9.684345245038784,-11.70957955625127,-10.984817736377687,0,0,0,0,0,0,0,0,0,0,0,0,0,0,0,0,
330,12.719094099483996,16.90452339067862,6.245617790527376,15.055166985030539,6.824329103867569,12.328721322485706,12.117085446687511,-6.537545635249515,1.5148496427528784,-2.4594294964437893,-2.827084762271909,-2.8188955589154148,-4.2384659588201,-8.814317059371646,-3.887245904950248,1.5008437065411435,0,0,0,0,0,0,0,0,0,0,0,0,0,0,0,0,
331,13.945721837323163,16.473999957877112,12.96394413382231,18.78225490855924,9.042586995948753,12.846086562473758,16.80095940324796,-7.843836697718643,1.6239979128349802,-3.4231037227616383,6.830544711887356,-7.473610061257716,0.13605878124295145,-10.229089240461477,13.912563758299854,2.4982287916666337,0,0,0,0,0,0,0,0,0,0,0,0,0,0,0,0,
332,15.105078870553157,20.07633981086977,15.093971180471257,18.217759078552575,9.618987242900502,11.035193974011136,10.660375545164328,-2.7238788670130205,6.932693483690187,-2.22792774306825,4.222105874414282,0.12466107052492248,2.540801695248888,-8.3680664246791,9.078616032932686,2.340026638168071,0,0,0,0,0,0,0,0,0,0,0,0,0,0,0,0,
333,18.25121724796449,25.52363583903282,12.240543133310418,17.382513633050124,8.675530654085783,13.52856080794436,3.7165081428611515,0.24019610504087296,7.4423419489532705,-3.603201975187332,-5.3615280207659595,11.357651647192654,-3.0923865038207623,-8.178911936083765,-2.1164911250956067,6.7925065833369285,0,0,0,0,0,0,0,0,0,0,0,0,0,0,0,0,
334,19.908053485722427,26.0376172775443,16.097905135385904,21.880808868523182,12.13837636505858,19.294740159281755,12.166554472551816,14.330834312913709,7.149033751214688,-0.3191454206171187,-5.200771778053479,8.924496407962124,-4.6771787256935795,-9.294773032014433,-3.447466258960901,-4.917998595903532,0,0,0,0,0,0,0,0,0,0,0,0,0,0,0,0,
335,14.842647780103057,19.479765903214084,14.39436101576332,19.562318852397464,12.076140293973008,18.142570138868034,12.025050535108665,18.84779086000922,7.201463361369292,5.733490631554957,-4.178152680303469,-0.7967621170644463,-2.8591633259237597,-6.864266244546954,-11.226364217013383,-14.939185609745454,0,0,0,0,0,0,0,0,0,0,0,0,0,0,0,0,
336,7.404887498030439,13.7490897949292,3.781004612427532,11.756178673679033,3.269759084359502,11.032224048565869,-0.948328195008945,7.172734564986296,2.3067882327511455,4.086916487855589,2.303045891667523,-8.571045896123564,0.9792588401673612,-4.0116000237584615,-3.530932546501475,-3.6789639273283345,0,0,0,0,0,0,0,0,0,0,0,0,0,0,0,0,
337,4.116684440192824,12.966000738776533,-1.969992627229452,11.344615377694765,-1.3334694586847888,9.288940242464776,-1.1091793998552788,6.245082755532145,0.42037617178230846,-0.619664972100793,8.48989122780958,-11.310823915255924,3.2995280244288097,-6.019841550767481,8.063095358044308,-1.270339775212447,0,0,0,0,0,0,0,0,0,0,0,0,0,0,0,0,
338,8.856726903884926,14.463073777238897,3.5679088402910466,12.426716865756624,3.8026541104054132,12.827408924326477,3.227404358452283,7.372302567800261,1.4180247403675565,2.2532762580003265,1.0936432555107274,-2.2212994148632674,0.11854841145363082,-4.451258220370008,-3.8041858038766634,-5.03615272572023,0,0,0,0,0,0,0,0,0,0,0,0,0,0,0,0,
339,12.699928875815928,17.356497772094684,8.677819407795852,15.18549232099054,7.090160835560695,15.397993605398192,2.6667942362868473,5.431328743726937,1.1390743283716631,4.677341455726918,-4.798479532962048,4.394002186270285,-4.699873026566422,-2.0261705724220747,-5.94979979528425,3.098750453156285,0,0,0,0,0,0,0,0,0,0,0,0,0,0,0,0,
340,5.86324361096932,17.68685831786773,4.351948913242964,18.595289764797712,4.770162042048668,14.130228148979441,0.62176177485604,9.642107352529123,0.3702978684039664,3.1595353823346954,2.103596458570607,1.207428532322325,-4.681512671969088,-5.521419111312383,7.4782101530792175,-0.8824507728250524,0,0,0,0,0,0,0,0,0,0,0,0,0,0,0,0,
341,1.545980315962268,13.530645796682848,1.8321075718134523,10.978524427867995,3.216826415979085,9.269173104695597,-6.635496545583493,3.260210290064009,-0.4570349902060258,0.08687769253363342,-1.4699050113943457,-0.8004234227363298,-2.4453997233011933,-9.634166577646425,-0.41684545657622607,-7.194073541868911,0,0,0,0,0,0,0,0,0,0,0,0,0,0,0,0,
342,8.512745991621031,13.191427983131092,6.247001715996063,6.805454519491178,4.555178355482155,8.255592267570705,-8.819423658525636,-8.165296687921227,-3.9448988464160095,-2.457369813058449,-15.762702160113264,4.3217728563463,1.7039556419888413,-9.323341052337085,-3.485704946672257,2.073043956158201,0,0,0,0,0,0,0,0,0,0,0,0,0,0,0,0,
343,13.12012531550701,17.74482826560356,10.629338497578772,15.974928701617017,7.944800201512123,13.355823711824684,-0.7195236662605851,0.05188849450000532,-2.400423273175889,-1.6328951902548283,-11.948901668273983,8.182757774625486,3.3217595936760063,-9.955107781574853,4.3839838409398695,-3.0164034664968122,0,0,0,0,0,0,0,0,0,0,0,0,0,0,0,0,
344,10.619395257229826,16.853822810129913,10.336036326423311,17.282707337779968,9.430795594657212,14.85363789018416,3.2715457246124515,11.282239608844861,2.5203220101351747,5.704604340966561,10.784513604096155,7.3797522932310216,3.862276096958716,-5.548844908539905,-10.402134551631178,-19.9496406986914,0,0,0,0,0,0,0,0,0,0,0,0,0,0,0,0,
345,6.308360181794512,8.741262281723607,4.766456482008749,5.188451167314383,4.167348486248386,9.81596218492237,-0.27849054948637786,4.603328005536838,3.6803140525051106,8.616318811799317,12.773793922796195,2.4657133558785844,4.529727037878054,2.064336329912777,-14.426545740268473,-10.7573154890626,0,0,0,0,0,0,0,0,0,0,0,0,0,0,0,0,
346,6.47356389341607,6.759945107071729,4.61860545773618,3.0150453874873904,0.976902551587898,9.208991612282745,-1.638091374318691,-1.7503799316688742,1.4233998157704804,5.848260377588037,-0.5530963184315745,-1.1705564214755526,2.685718026689784,2.3044040142378606,1.8307389865779182,3.1309896781466637,0,0,0,0,0,0,0,0,0,0,0,0,0,0,0,0,
347,9.500790932970432,11.96299027069523,9.253175065687827,10.338578663949448,5.380205691595279,12.715917880547352,-0.12170213252369422,2.3874577363394565,0.776455477319324,5.1044826089179764,-2.199926753895406,-2.9921227684219893,-2.10079620634615,-2.689199827081218,-8.312606825261112,-4.176835742151097,0,0,0,0,0,0,0,0,0,0,0,0,0,0,0,0,
348,11.930276258951466,14.608054256330632,11.085152239225863,7.871207706640206,10.452994806578488,12.14958022175793,5.036894819682658,2.3031872644414193,1.0732989444360737,4.745451937328608,-1.2108342097187696,-3.789701766168092,-1.6784008422253205,-3.4955125345410862,-13.65031307772123,-3.0826359212577774,0,0,0,0,0,0,0,0,0,0,0,0,0,0,0,0,
349,12.515568613166153,11.725929128689302,9.940981173805056,3.0552206082574003,7.476127057229348,7.86805525573476,6.859609060266564,-3.669173256555979,2.6871122721952965,0.3473009412620378,-1.306316436640735,-8.222647260421073,2.700924115132178,-4.579176462894056,8.80754744630367,5.069368412654134,0,0,0,0,0,0,0,0,0,0,0,0,0,0,0,0,
