%OpenBCI Raw EXG Data
%Number of channels = 16
%Sample Rate = 125 Hz
%Board = OpenBCI_GUI$BoardCytonSerialDaisy
Sample Index,EXG Channel 0,EXG Channel 1,EXG Channel 2,EXG Channel 3,EXG Channel 4,EXG Channel 5,EXG Channel 6,EXG Channel 7,EXG Channel 8,EXG Channel 9,EXG Channel 10,EXG Channel 11,EXG Channel 12,EXG Channel 13,EXG Channel 14,EXG Channel 15,Accel Channel 0,Accel Channel 1,Accel Channel 2,Other,Other.1,Other.2,Other.3,Other.4,Other.5,Other.6,Analog Channel 0,Analog Channel 1,Analog Channel 2,Timestamp,Other.7,Timestamp (Formatted),Annotations
0,-12.365320229469745,-12.425951933478743,-4.471061886275052,-5.103595225177926,-3.2383125097974528,-6.594243669704397,-10.116143850965855,9.956009722049544,-6.1453813481860635,5.184171701965575,-1.8971869240690324,17.282382578546823,2.909799371068594,9.736370502736925,0.6268843775616588,11.283110483404275,0,0,0,0,0,0,0,0,0,0,0,0,0,0,0,0,
1,-3.1830390205294634,-4.330622094644582,-0.7028230821160548,2.8897238241945047,0.2141702904192755,-2.5723002667607204,3.55649019555716,-4.340450249691003,-3.796912960691351,3.7529278967394966,4.317589862880187,3.6881202803550934,3.0556851475353035,3.958040295711662,7.223093210304102,0.7784987432588863,0,0,0,0,0,0,0,0,0,0,0,0,0,0,0,0,
2,0.5590443340519187,0.9779067658047893,0.7603535917298103,3.9429597040661832,2.756386829096442,0.9255936536929852,6.398672672618872,1.778186576860719,-0.6136013187870724,5.394198040842996,6.9429978499757,3.1526783689461944,5.401554354413413,1.7083419989720792,8.30222782876048,0.751117988089204,0,0,0,0,0,0,0,0,0,0,0,0,0,0,0,0,
3,-4.330796879002548,0.8650658558515545,0.6107120700777386,2.76085048574447,5.2475759643759545,-0.19116657549780314,5.066828587022343,2.960933160422158,2.5345581942459705,4.816878808664427,3.0977358464811857,7.769498138294788,6.11760565587776,1.6876702642369397,-0.08383944926266462,2.6937026408038367,0,0,0,0,0,0,0,0,0,0,0,0,0,0,0,0,
4,-9.726620505397022,-4.54306855641542,-4.899477338122935,-1.4891693216116266,2.682113392730173,-3.450697574221806,6.036758614488676,-7.218200349710415,1.913860403294274,-0.1945015092933815,2.906019742278314,-2.8537383775292966,4.9999784170440735,-3.097658004300518,-0.5566493614689296,-8.177591849182768,0,0,0,0,0,0,0,0,0,0,0,0,0,0,0,0,
5,-5.862146893072008,-2.7703715290997195,-5.715216543748454,-1.8559611173386088,1.009438886840968,-2.027053407338869,2.6004167522522863,-5.223652626232024,-0.5469926962603928,-3.0221971723234375,-1.7880211160099009,-4.955863489824008,3.530039810787862,-4.660690020009785,0.8614436252534325,-8.717810988349221,0,0,0,0,0,0,0,0,0,0,0,0,0,0,0,0,
6,-0.4693983537397912,4.3174334757725035,0.3628864833810468,2.363711182033768,3.5600316406024035,0.8485290351265888,-0.6170415695338249,-2.6492306573614,-0.7124667709171106,-2.703718536039794,-10.552904187857614,-1.0891003840439097,1.5014448663194884,-4.1932117649316965,-1.937257484958021,-2.99735695343378,0,0,0,0,0,0,0,0,0,0,0,0,0,0,0,0,
7,6.30690525031784,9.22940347930809,5.610184880524287,6.423584144378964,7.964981381267833,3.97492030143151,1.3892176523798554,-0.737635713327478,0.10464328146255752,-1.0521937138949014,-6.902787209249865,-2.099990107615888,1.2928969886983523,-4.587560382410949,0.811249511483723,-2.1067131277833084,0,0,0,0,0,0,0,0,0,0,0,0,0,0,0,0,
8,4.108070055761615,5.112132694661611,0.03302751245962554,6.655396420257205,4.433461836607492,3.706739698342375,-3.1803375270372527,1.4854973363058406,0.7666278150962853,1.2281755927709028,2.696939268988814,-1.2290151690236542,2.0946467746701884,-4.238267870136106,3.8424671233933125,-1.2210818420751295,0,0,0,0,0,0,0,0,0,0,0,0,0,0,0,0,
9,-6.8305052297425135,-2.458535089864185,-9.770676293516132,4.215877222507132,-3.876355058085693,-0.35037852562894045,-9.850014616040156,-1.0432017215809282,-1.0372324174830965,-0.14325098671853453,-1.7666098972501487,-4.472290768708504,-0.2702857185316816,-6.684265871243284,3.8392343341618655,-5.262483090617941,0,0,0,0,0,0,0,0,0,0,0,0,0,0,0,0,
10,-8.562259607393543,-3.0203935000079554,-9.253715141033695,2.990043769326647,-5.114535322791497,-2.4440510540572618,-6.945815174439332,2.9550210899012157,-3.6234786441384017,-2.646912831049093,-8.232136629937202,-8.734698259345478,-2.583476832922173,-8.474005044029994,0.7582598633555477,-11.44735948497395,0,0,0,0,0,0,0,0,0,0,0,0,0,0,0,0,
11,0.28368227610648944,5.370855031921877,5.434336171503624,9.9139772948079,3.932194569442501,3.9374482863959415,4.6044816515181,16.46888256224434,-1.815192796660142,-0.1642661326463326,-6.857313583944517,-2.95554698526513,-1.6592602185943406,-4.404069794546928,-3.539883794162165,-6.782017039621213,0,0,0,0,0,0,0,0,0,0,0,0,0,0,0,0,
12,5.6858270737575936,12.93912843659163,12.32766051127983,18.785852106240114,7.683813447690483,11.995962916832795,12.251917609505156,25.483588868952722,1.7990357778837023,6.154107877108984,-6.24381275052491,7.618392410055122,0.4874445196989541,0.7663147856318062,-7.020109897661442,3.1254434556663035,0,0,0,0,0,0,0,0,0,0,0,0,0,0,0,0,
13,6.3373667072533095,13.562872548207338,6.9347597416901685,18.37907606658807,3.0953825530689443,12.622574912891377,13.821643299048286,17.976643532853956,3.6944193981145617,9.229984838584585,-5.661314268487388,10.720889051978972,4.083937054692925,1.7994486060361368,-1.5225374987509923,6.7205831190408105,0,0,0,0,0,0,0,0,0,0,0,0,0,0,0,0,
14,9.030914336301239,11.115444769523688,12.817967796047157,10.646408070842007,5.332893788103862,8.476978195221669,14.500094723101775,-3.821828155700169,3.931986810152182,3.9653426883665475,-3.8329263600824817,1.134972767821921,6.334649051450583,-3.2533564811380273,14.716819051126144,1.451430315995804,0,0,0,0,0,0,0,0,0,0,0,0,0,0,0,0,
15,14.796956278685439,12.36274792830671,21.183348489791275,8.29277498730837,11.92956359752062,7.776439052143656,13.261043169306259,-9.570177782361952,5.825741733514633,-2.1449430590030687,0.1453840018114363,-7.936679265529634,2.751550252504458,-9.016156913368036,9.753130166590552,-5.907953865567709,0,0,0,0,0,0,0,0,0,0,0,0,0,0,0,0,
16,11.25095790012266,9.646550970341483,12.193835551427302,6.873008823205181,7.475364561366149,6.359704536244328,5.85677914928403,-2.5057753732396986,4.8677475035621285,1.2051076261246436,6.719938696299991,-0.6548165058517696,3.257745262149413,-3.898481820195343,0.4820509996230413,-4.740479227387404,0,0,0,0,0,0,0,0,0,0,0,0,0,0,0,0,
17,6.189705235782178,7.104342525514312,7.851498691318383,4.266630828566623,3.2824082884907,5.314983610202887,-1.2921050693452116,-5.5810661348457735,1.284315061754512,3.672264993716695,2.9785158992330167,3.46332176945603,4.323436369336946,0.005099882951057566,6.435973708010678,-2.0313914780573654,0,0,0,0,0,0,0,0,0,0,0,0,0,0,0,0,
18,10.756466795305364,10.998873712234953,11.995551594376884,5.133449497737445,6.325090360132577,6.528415222645421,-1.2048877852547193,-4.25843969268977,-0.0437421739217001,3.266595583489817,-3.810518253143769,1.6405316365243579,0.08128058395948301,-3.31322482053271,-4.038597152915386,-7.518251198106844,0,0,0,0,0,0,0,0,0,0,0,0,0,0,0,0,
19,10.537596288312969,7.451131957171867,9.385069411407642,2.8506229455353775,4.705965227065164,1.9136367303631872,4.356100605436254,0.27974235315213747,0.47230064719853715,3.2457360818062284,0.4865914661185542,4.514258246112064,2.776286096228006,-3.5806967225933306,-5.8800008649506665,-11.36669512531412,0,0,0,0,0,0,0,0,0,0,0,0,0,0,0,0,
20,7.678598163577618,1.3880714374653422,10.086876783463396,2.7748709404303753,3.3728373931780595,-1.4625099103040498,8.89201950272718,0.1448283532461616,-0.08742414621023897,2.417638950505605,7.9805281003969455,6.2237056124007495,10.308893093028942,-1.2774094890430234,12.314178385234882,-7.066794838754752,0,0,0,0,0,0,0,0,0,0,0,0,0,0,0,0,
21,9.5650445217412,4.170746682004335,11.662869648132755,6.33088350454328,6.736776382907834,2.283701560447966,8.764620588303373,3.3390877476223437,3.1013689256754873,3.7911464184049635,5.511089582352071,8.172922404495196,7.930345448960701,-1.1675580483222632,6.99767888706954,-0.8453139360820918,0,0,0,0,0,0,0,0,0,0,0,0,0,0,0,0,
22,3.4007852781776506,4.444282003729043,7.59237433554182,2.6007690187801984,5.668062276842733,1.8081972059953273,7.857438890490457,0.05281380272450065,3.524440795521784,5.897621828606717,-0.8920198014945413,9.758921534580566,5.119415559000053,-1.1021689260375211,0.9529923245301077,-1.7346040408987944,0,0,0,0,0,0,0,0,0,0,0,0,0,0,0,0,
23,-0.9230630494729581,2.1074440369871468,8.080433095697558,1.5783196980356138,3.158995594921592,-0.3627597384299577,11.76711235596862,-5.770583095668954,1.5113344050621649,3.1861296493530773,1.9084292786567474,3.234852747690688,7.204765237837513,-2.4885238971282604,7.013383821422856,-5.821977986660176,0,0,0,0,0,0,0,0,0,0,0,0,0,0,0,0,
24,5.183587321329213,3.9632968729477085,10.911898074136843,4.391969883357575,4.904881055186351,0.3838029890404613,16.54080431550247,-5.03443784722775,1.5919996842059447,1.244322157398777,13.057479938061846,0.02757952017251597,7.38131923130625,-2.7740484294771477,6.820906010548256,-6.278055883109993,0,0,0,0,0,0,0,0,0,0,0,0,0,0,0,0,
25,6.7733630071304844,4.435897888680643,13.457354270528512,-0.1554760466222973,7.801358888723755,-1.1552772718799105,19.480158672935758,-8.376507460964447,2.8579266271353383,-1.0920730831863459,13.864505554231691,-1.4598945752944061,4.17011951842035,-4.601584672764549,8.038460419550168,-5.798257782881377,0,0,0,0,0,0,0,0,0,0,0,0,0,0,0,0,
26,10.876233711738053,7.406849111801989,19.561213417485277,1.3159500351637803,12.07858529888108,2.337729522759929,26.583991618522646,-8.727253847492747,5.891809859822914,-2.222740228852615,10.076377042399837,-3.589075869770735,2.654910219380513,-8.097290215565652,2.03069608314464,-6.622496097768747,0,0,0,0,0,0,0,0,0,0,0,0,0,0,0,0,
27,15.450949788519978,9.407202977073723,19.225386517225076,5.103395521077445,11.229591840782604,5.842504811095068,26.865282541479758,-3.572559206520978,8.405184577228423,0.3242689895428108,13.612791771073555,-2.7320142899934448,3.023214580096934,-8.625026291313425,-5.9620663781687995,-7.10016486016197,0,0,0,0,0,0,0,0,0,0,0,0,0,0,0,0,
28,10.170150742688605,5.054668158155636,12.123025182314066,-0.7303062749199114,6.1783614306070405,1.4992457134420363,17.161318330276686,-5.704136727897179,5.129041896240935,0.8989824129573396,9.636092591130048,-0.9307187775941337,2.973694363762357,-4.503802694329812,6.145390899322624,1.7875844780965338,0,0,0,0,0,0,0,0,0,0,0,0,0,0,0,0,
29,3.162299551539519,1.0287003395071395,3.8849732392759364,-3.504617517571603,2.4061261959257507,-1.9172661142156358,7.665642097084827,-10.772564813450458,1.8281618617279207,-2.6759073255609884,-1.6689836200866282,-1.442881104125,0.6642274061984743,-2.1657953317604886,12.111711508123964,11.501682916826876,0,0,0,0,0,0,0,0,0,0,0,0,0,0,0,0,
30,4.5348039052986735,4.7602870690641765,1.2497870219448117,3.284249371499044,1.7979222491238573,1.8843229468637617,2.419189882511162,-5.8922792254206655,0.9102866611016367,-3.446741706992551,-2.8983726548153896,-3.338183759521357,-1.7050460501188667,-4.041885510847678,1.6352943393412964,5.529703389475017,0,0,0,0,0,0,0,0,0,0,0,0,0,0,0,0,
31,5.997595392051281,7.509526704040837,1.3282773814255364,5.607339066688198,0.5502977529529574,3.945244792566328,-2.1049997537375162,1.241191907352004,-0.5006891225905648,-0.1820280103528802,3.406079988275714,-0.6592291268734414,-1.0178488225548392,-2.359440548919082,2.7358628911328964,3.911150868471033,0,0,0,0,0,0,0,0,0,0,0,0,0,0,0,0,
32,3.825786306281472,6.863874359627246,-0.9427832151588831,7.129689778636902,0.8908234126415664,4.766741142029318,-2.393748836596913,8.470221383879675,-0.32890943883541013,1.882387819196694,5.047478157512735,5.185815314841264,0.7911340432919474,2.2331829706314537,10.673622055634645,12.255084963152708,0,0,0,0,0,0,0,0,0,0,0,0,0,0,0,0,
33,1.989512090493335,5.430307345735173,-2.3292562628450213,7.375881930589571,2.8278443887927978,6.369711273473129,1.1612292115961935,9.246451508300794,2.2799803815727557,1.514815340373488,1.0667113090403575,4.2659853960201986,0.7427699888352137,1.9655467550620003,6.7982888505316055,7.068685260231696,0,0,0,0,0,0,0,0,0,0,0,0,0,0,0,0,
34,4.311860065796367,3.7344860291150894,-1.9341915963225915,0.15164505245590476,2.543806319536017,5.035499172226707,2.3043528117375445,-5.845477097689752,2.263556905540014,-0.7371526085866407,-3.212755790008643,-2.7480915162187642,-1.8206519778102148,-2.0624088062579204,-2.1210689934408293,-2.897865114544743,0,0,0,0,0,0,0,0,0,0,0,0,0,0,0,0,
35,2.5681411237860203,0.7010263281171376,-8.078282355240297,-4.455935973531652,-2.3245328811173778,0.15888863279256782,-5.7068960731735245,-14.47299822795614,-0.3009885774252865,-3.2129857958537684,-7.533477685800307,-5.563096817640044,-3.9853147188407405,-3.9535811501524023,-1.8491570493691256,0.21678093762820083,0,0,0,0,0,0,0,0,0,0,0,0,0,0,0,0,
36,1.0266950182352232,4.818066241630035,-6.899206994609415,1.7295870867678076,0.6767505974343777,2.420460389745955,-6.908656949414876,-5.332403045481989,-0.059177668865473265,-3.6373625322725758,-14.007930152943217,-1.547179033333805,-2.4391421562526574,-1.5845291268570065,5.9272905522526,9.668991812217083,0,0,0,0,0,0,0,0,0,0,0,0,0,0,0,0,
37,5.83501399769041,10.321289013962527,2.9938244714571134,5.570633890899099,8.266517194138835,6.525436102082818,0.9832183375721755,-4.791128516364704,0.6843182938940089,-3.045129612121656,-14.412090985111845,2.111991110716289,-0.6837146426008758,1.0769510102839916,8.183608945469118,10.225604829893854,0,0,0,0,0,0,0,0,0,0,0,0,0,0,0,0,
38,8.740772592822486,6.336860680298596,2.843923997970939,2.895807601799561,7.8596302588534765,4.336800830418449,2.4035899660620537,-7.50521932780344,2.286067464079295,-2.4061094293141707,-4.438079977496429,1.945033135107252,-2.225149984122652,1.0566651745514264,-0.6469613722968433,2.7627235631158875,0,0,0,0,0,0,0,0,0,0,0,0,0,0,0,0,
39,-0.44706911298998775,-4.639669776909946,-5.596739073108997,-3.365023721489806,2.0547623488070803,-0.5031487848340666,-1.055157947092759,-5.59998384140086,3.277388567675402,-0.9220520274317465,3.00147435753955,1.9333828918845342,-0.2742346285286743,1.7845571725732157,-3.2276811089466406,-0.6161895658746879,0,0,0,0,0,0,0,0,0,0,0,0,0,0,0,0,
40,-11.203566927025054,-11.662820934814501,-8.813672672939727,-8.414220672729574,-2.9275623950739025,-4.618196622540683,-5.361996281443176,-7.997312305624986,0.35215165466973986,-3.2958242107845734,0.3713854536249812,-0.8058168047892025,2.032452969190146,0.4406746524419134,8.096303436631814,3.8573262983085357,0,0,0,0,0,0,0,0,0,0,0,0,0,0,0,0,
41,-11.936867809776267,-11.670742252836128,-8.189120212977649,-7.837632594848024,-6.02156673000993,-5.015606451418595,-11.00196487754819,-7.255545354606724,-4.082602656748605,-2.814675756690562,-2.7691447260098414,2.486065798896675,-0.5742051139526865,1.984696079162319,11.25212025519452,10.571689252908172,0,0,0,0,0,0,0,0,0,0,0,0,0,0,0,0,
42,-8.387775873850885,-11.350953427802779,-5.799595276871713,-6.510853595906745,-4.845681370601909,-2.7071939185082172,-10.553369139739736,-4.181209852539183,-3.9454280105892963,2.179465141475376,-6.201270047004982,8.994682075027313,-3.8593167065712066,5.169298382594079,-0.7054748061235614,8.485377254526409,0,0,0,0,0,0,0,0,0,0,0,0,0,0,0,0,
43,-6.721282949605325,-10.178919639167916,-2.6537059591541237,-4.964049130968895,-1.6649687409709202,-1.8070627909751025,-9.301010507042733,-5.532931693505397,-2.868385773951559,1.9962788459389031,-10.754688477782182,4.987054468147221,-3.8096029237085673,1.3503823950535434,-6.336862103987755,-1.7375547922385373,0,0,0,0,0,0,0,0,0,0,0,0,0,0,0,0,
44,-7.280971933826521,-5.375034380550318,-3.148922987613176,-0.7590677673224207,-1.136251358593455,0.1047886665608786,-11.964510023490618,-7.92318835202466,-2.230248396851465,-0.7060985042385823,-18.116144674453544,-0.428416999652228,-5.680624032432846,-2.7393603860669913,-8.448591496001526,-6.763876616686374,0,0,0,0,0,0,0,0,0,0,0,0,0,0,0,0,
45,-9.149147013181263,-7.55388789995078,-2.789118632175402,-4.752187706228838,-4.176177426455794,-2.0014188251966516,-7.388296394900138,-11.729422747121873,-4.165323697609622,1.2500327323620155,-14.968750441906721,1.7387472815916567,-6.431275292611886,-0.06813706530962804,-11.90763265545042,-5.169853582541152,0,0,0,0,0,0,0,0,0,0,0,0,0,0,0,0,
46,-10.690042849584216,-15.496035453541069,-2.2608448252798894,-13.929522988910307,-7.419798332375564,-8.892492582688206,-2.807925064047808,-15.087634509199589,-6.406997358745116,-1.146967273286677,2.716443302150523,-1.7534722932163618,-1.6891993798624867,-0.2748012783152447,-0.304044662790659,0.6965260098142179,0,0,0,0,0,0,0,0,0,0,0,0,0,0,0,0,
47,-8.474192135474311,-12.121789597060484,-1.8146520027639355,-8.841656231130713,-3.7419743417212175,-6.226026845411468,-9.638480454617522,-12.38129146684939,-6.454819205490672,-2.855552594665177,3.4416876735506,-4.431720720129434,0.9790098518774215,-1.544284921752606,12.11119768094559,3.6475140856019967,0,0,0,0,0,0,0,0,0,0,0,0,0,0,0,0,
48,-3.0540108602249063,-5.630907688925362,2.9567149780214663,0.03860580743442199,1.8489846499384015,0.7191690474586494,-10.280635377336651,-7.288635608125503,-3.8633021934602922,2.0449047781247245,-10.12903975779868,0.7108364582756295,-3.2749571817985235,-0.3788066777317596,-0.09662233811558707,-0.2788412908275504,0,0,0,0,0,0,0,0,0,0,0,0,0,0,0,0,
49,-5.018289807103855,-10.566693099239302,0.5538926489579694,-4.471960962170954,-0.8187585144640366,-2.4670216234749773,-5.845578262196639,-8.112651929701443,-2.4627133949040854,3.928877715605818,-3.676006919563477,4.939671483834957,-1.7811399698224264,0.9393446289195673,-2.056082577567828,1.2051574269268333,0,0,0,0,0,0,0,0,0,0,0,0,0,0,0,0,
50,-11.5977191005247,-12.714875291598105,-6.200276794031254,-6.1722296973212565,-4.436006607916809,-4.900043051154711,-10.574584187862456,-8.762727272178111,-1.5767968962001895,1.0813686592144514,2.2415182279451784,5.066875626459545,2.3956607015956717,2.050355204800489,13.053621449249986,8.83481690700713,0,0,0,0,0,0,0,0,0,0,0,0,0,0,0,0,
51,-6.389962232632996,-3.5968510880147733,-2.476914460694559,2.0309201846996103,-1.013034368375628,2.8634093533419502,-8.822432280748302,-1.1165288462251794,-0.9490883297130859,2.6595940777777454,-8.248610268430898,9.538809584735718,-1.1986059483743494,4.3238334612532086,6.1028133625455805,9.377655928776944,0,0,0,0,0,0,0,0,0,0,0,0,0,0,0,0,
52,0.5782740831743638,-0.6291795570641057,-1.629001765586537,3.291016637299691,0.7425242230286244,5.010915522746217,-4.060911580613322,5.786039270670088,-0.7464809259057663,4.769526066569195,-7.127435431526738,9.852403752303914,-5.0298234369724035,2.5412762953880037,-8.122619980841922,0.7997527520774526,0,0,0,0,0,0,0,0,0,0,0,0,0,0,0,0,
53,0.017069162416731842,-4.0992176238050035,-4.0525503421437605,4.117958914460829,2.3281031625989783,1.9936813486294085,-3.516856641438139,10.925205887029776,-1.0358515972894367,2.855978819889664,2.9760477940060106,3.0489379315951517,-4.4433440172037315,-1.0774486859340229,-8.238743593246893,-2.7017677746661377,0,0,0,0,0,0,0,0,0,0,0,0,0,0,0,0,
54,-3.541979845015078,-6.899691698758289,-4.025938310258354,3.396276930502836,1.1914688509480413,1.1461404479831714,-6.342914024740793,4.887734427719394,-0.8274827002658611,-0.05133550745571469,-1.6214964133672964,4.358281323845027,-4.490477421942241,0.8985113888183065,-0.7734397484197828,7.583636024948234,0,0,0,0,0,0,0,0,0,0,0,0,0,0,0,0,
55,0.8014539954988749,1.548998173604815,0.23253110759524986,4.166270416660481,2.1220986008793403,6.128661938828074,-6.4670016647721695,-1.865537970955799,0.3361273099805189,-1.0128410490279833,-9.629305572769063,5.663655063650992,-5.914239052075871,1.9141996007181206,7.25501577240869,12.724357199179885,0,0,0,0,0,0,0,0,0,0,0,0,0,0,0,0,
56,2.9973123515418507,11.296878155444091,4.860995798129821,12.972332850714807,6.668219613334614,12.506822707807217,-0.2811488977941963,7.942132593279382,1.5948404017585247,2.2437294522267734,-8.29297355573565,0.33264516990848847,-8.920203098596879,-1.436033102579053,-3.7833301363714043,3.545888986066842,0,0,0,0,0,0,0,0,0,0,0,0,0,0,0,0,
57,-1.797345531341179,6.122427026158391,2.801288670236019,11.44865566867891,5.19984630399469,10.29654696209397,4.076357138232254,8.3791610003546,1.7153511434524376,5.468986232561534,-10.091639633102517,-1.4109455803178435,-11.374116153024247,-2.500755825249179,-20.778358856756796,-1.2862128977363483,0,0,0,0,0,0,0,0,0,0,0,0,0,0,0,0,
58,-2.167540817642731,-1.188905934122758,-1.5154287731988063,3.2742801504698207,1.339111233461992,3.628687604662872,4.296584473801303,-3.5644277161622213,1.2663180817154682,0.24835212257521277,-11.498195383100594,-7.560837546768724,-8.158356219124926,-4.7356341684158565,-7.6450061195657355,-0.29579037431998145,0,0,0,0,0,0,0,0,0,0,0,0,0,0,0,0,
59,-1.1628048257803556,0.26379599405233733,1.3690272287017535,7.885017470260543,2.2699539650211946,4.170235409369525,3.6708565523161027,-1.0986966993785146,2.8881391995873855,-6.348623015659058,-1.2411314282899184,-10.561358699986584,-1.721300687119225,-6.283952211782463,13.658505746941223,0.679745498888856,0,0,0,0,0,0,0,0,0,0,0,0,0,0,0,0,
60,-7.120966452355674,-3.281296220100664,0.27906828851835286,5.236605598256681,-3.2150759993944362,1.3796452751745676,-1.4334680305414764,1.6675979863341794,3.3583066411208904,-4.522688835172218,3.6142555831104346,0.5032628163756101,-1.0523492756596795,-0.9885010842442057,7.59627576546589,9.45747061532731,0,0,0,0,0,0,0,0,0,0,0,0,0,0,0,0,
61,-10.414010830192193,-8.641339328558413,-7.01416854123547,-2.622344488256239,-9.237224921812548,-5.036326724649399,-3.246447823507154,-3.034589214528257,-1.3023678409484347,-4.07190148840661,-5.471761091644183,2.752094202955476,-3.983558942577332,0.5501705775368606,1.016300563001849,17.887754027650633,0,0,0,0,0,0,0,0,0,0,0,0,0,0,0,0,
62,-9.91458248532803,-8.36764853720922,-5.86040562120399,0.953045691801993,-7.301457495041232,-5.2576234838046805,-2.0944837223559283,-4.383704292738171,-4.143783334450589,-7.017922542972585,-8.460080794615777,-4.045152819037156,-1.7968857762420782,-3.1966200538542466,9.324083754956291,11.650559082862149,0,0,0,0,0,0,0,0,0,0,0,0,0,0,0,0,
63,-7.910410707362389,-3.4839379716286683,-0.2704567830354465,2.5695303709505826,-4.031751278728761,-3.034210316365602,0.6123425966161691,-2.3096760430289476,0.3928092598092121,-4.936315204195083,-5.727184705200202,-4.027828563238785,0.8913891623167558,-2.7954071758588697,6.957683202503773,5.920480999343663,0,0,0,0,0,0,0,0,0,0,0,0,0,0,0,0,
64,-3.746180604027497,1.3813387266783828,-1.1760974447930863,-1.149075309855725,-1.926448000430753,-2.146611945828095,2.569192206700631,-0.22241652822015112,0.5559977463538388,-1.4137573148752693,-9.473359289500735,-3.7297256911653136,0.24134168112522048,-0.8578837381579234,1.3297805317615996,4.622070177966098,0,0,0,0,0,0,0,0,0,0,0,0,0,0,0,0,
65,0.6835197000116864,1.80265639602856,1.7210185393749953,0.14021038636796845,1.196890289497091,0.22692512170406332,-0.786644418837227,1.0248274896438048,-1.1174216958793437,-1.6783294059078173,-13.615853335950618,-5.488622137919265,-4.5245578237445585,-3.7439558567619144,-7.470976965495467,-1.8968962219379257,0,0,0,0,0,0,0,0,0,0,0,0,0,0,0,0,
66,-1.5849531415732017,-2.326428211763364,0.7123709765904422,0.12363246763262481,-1.4513632121221676,-0.4653239444398807,-6.421733014500241,-1.0775054611852184,-1.140528695699686,0.2888262142874538,-6.719399666026376,0.3657360937522611,-5.085625773015948,-2.3844461337984484,-12.679406855568018,0.21050510521919996,0,0,0,0,0,0,0,0,0,0,0,0,0,0,0,0,
67,-4.272942335888374,-1.7463394054395849,-5.028067918691015,2.147207930548852,-4.710514293525208,-2.073085697301643,-5.598393994227266,0.23408386652378255,-4.478093809726445,0.7234299953370282,-1.859831134851909,2.510839239154109,-0.5187417372528813,2.2336403380699323,0.4655702686088574,8.63453066155924,0,0,0,0,0,0,0,0,0,0,0,0,0,0,0,0,
68,-1.4394842519468511,0.6339886503067333,0.5700349959153073,3.873388985161043,-0.792975674799635,-2.2135816856735175,0.7443858768698703,3.989079919623407,-5.265332531267532,0.7518377091743673,-2.170110616586868,0.8583096824461762,0.4272121238926161,2.6536586933840454,-0.9317701858745906,1.9522711873973062,0,0,0,0,0,0,0,0,0,0,0,0,0,0,0,0,
69,-4.823385803687714,-8.224880512737343,-0.010756482882300133,-7.076999709375826,-3.5308367615126173,-7.482802002283236,-3.8863879276132707,-4.307381992449621,-1.1945364546683095,0.4434589683236396,-0.6484382863280729,-0.8646992215386575,-0.22403046474177302,-0.6912159576964996,-7.511777818604294,-5.92570333725134,0,0,0,0,0,0,0,0,0,0,0,0,0,0,0,0,
70,-10.96705037716427,-13.825647938965929,-11.069735100016345,-10.076298666607016,-11.662039896229714,-10.21955753597966,-12.917336624995585,-10.841175116552492,-3.463672628266039,-2.4010600233208024,-5.681102004501497,-1.6145771793825645,2.2321030905848005,-0.3852770726043673,10.901104220982006,4.533934264711705,0,0,0,0,0,0,0,0,0,0,0,0,0,0,0,0,
71,-13.699621147741368,-8.64775720795069,-12.564822875650918,-0.8669365311740052,-11.366639842822394,-6.867626878415081,-9.976247576575972,-4.531924635161914,-5.288419250968893,-3.4539552892671495,-10.965579397610345,0.4511144775735403,1.5265914204725206,0.7798065352637096,10.910942552877277,9.835938601278977,0,0,0,0,0,0,0,0,0,0,0,0,0,0,0,0,
72,-16.174344715624926,-7.205855677385699,-8.077011789694168,-2.1886140925710293,-8.220091246271693,-6.758955444929882,-9.183336765929184,-3.3040188128610595,-5.081207996941153,-1.6064106682793309,-3.8391988123122296,0.28546501813847414,0.18250581656032594,-0.2885404521217225,-6.293861672232406,-0.06834272806930652,0,0,0,0,0,0,0,0,0,0,0,0,0,0,0,0,
73,-11.483001033349439,-5.787993721649144,-5.83323453165923,-5.675018443498388,-6.405563434138941,-6.812387968615411,-11.15665529747345,-3.5880061412392195,-5.641853933665889,-1.0608645692768057,1.0550848605018697,-1.6821733809354953,-0.5829018947969793,-0.39799788970756467,-10.457165185346225,-2.013831428996629,0,0,0,0,0,0,0,0,0,0,0,0,0,0,0,0,
74,-4.606947574881133,-2.436519308360772,-4.060553988128532,-3.090934221347098,-4.736315423976606,-4.912004402456461,-5.253134053611589,2.24673124182965,-4.820506534127155,-0.10465948316813822,-1.2260970620632206,-0.39549035003895483,-1.0247306706140407,1.039904633136107,-9.211774953976551,0.12195267167846069,0,0,0,0,0,0,0,0,0,0,0,0,0,0,0,0,
75,-6.162987158536879,-5.985967320663718,-4.452152254809278,-4.393165071350936,-7.059459557331294,-6.881168525506723,-6.593535513431448,-2.40095753025615,-3.811655321380823,-1.0621762571896833,-3.3322812967845525,-3.9440945552483124,-0.2833617098123906,0.044516746488881154,-1.04983063264535,-2.183297319229908,0,0,0,0,0,0,0,0,0,0,0,0,0,0,0,0,
76,-6.072993965397103,-4.837631820826346,-2.3409093961544585,-2.2092515490617046,-4.165776365517885,-4.6124448943944145,-5.804678709588899,-11.62971063430426,-3.240143185604998,-2.5371305521354834,-5.423494641450034,-6.2712838912333675,-1.279187113150872,-2.4666143579360664,-0.12455805240188234,-1.100015604247588,0,0,0,0,0,0,0,0,0,0,0,0,0,0,0,0,
77,-7.854858402047029,-0.543824553136318,-0.6686609560832864,-0.3493420266956804,-0.09135377829088043,-0.9980210300732182,2.5923695127147397,-9.538093348170648,-0.9584233687968471,-2.628044169344271,-8.790025546135887,-1.7195802449342779,-1.4735948589210395,-3.36262765524139,-3.161155485167235,1.707019104845962,0,0,0,0,0,0,0,0,0,0,0,0,0,0,0,0,
78,-7.09556208541386,0.5986315079956483,0.3457821501154683,-2.678229344569658,0.014151189605655645,-0.8741609508297756,3.7407364537670844,-2.3485621237894776,1.5235377681122984,-3.4494815308701128,-9.537762166435577,-2.225979088548634,0.8131020522526313,-2.9095599188386885,5.539016673967488,-0.6651263622398353,0,0,0,0,0,0,0,0,0,0,0,0,0,0,0,0,
79,-0.6072300179478702,1.5765744036969096,2.630940175888213,-2.2816258860666068,-0.25508910841170973,0.4541225252361585,3.949058464599389,-1.019772914109879,3.3480619104564227,-2.78921000938751,-2.8737073692985575,-5.206302391419776,-0.35756457214169046,-2.0663764239811897,-5.212409052437408,-3.341053761081959,0,0,0,0,0,0,0,0,0,0,0,0,0,0,0,0,
80,3.705594376252833,6.358174840978478,6.880146310080605,2.188790266845615,0.34654705036862765,4.693313111333552,10.202820173798258,0.913493199651441,3.7550429058926795,0.35911558723019255,4.137487955068515,-2.1063241518232587,-1.7330205831545058,0.1527663319057595,-21.491922408906767,-0.018240785649723534,0,0,0,0,0,0,0,0,0,0,0,0,0,0,0,0,
81,4.503577501714005,9.59162028546065,7.980549933088,4.3420447045510855,0.06615748958191148,4.953663139720973,4.709692262671197,-0.44086543252896604,2.8355503206026498,1.1358021848167539,-0.17208397196507264,-4.066969699998069,-0.46055194414926603,-0.6153309832935179,-7.60235259431802,1.4677906522826838,0,0,0,0,0,0,0,0,0,0,0,0,0,0,0,0,
82,5.331144601041117,9.108893684110086,5.051309067197934,4.548826807591851,1.8631314269355812,4.28495647137143,-4.0269091129018335,-3.8580556166741786,1.6873630435466396,-1.8405939409399679,-8.201141314617914,-15.252343143610915,-0.10177749852354623,-5.913546388863722,9.387140175127854,-3.8554295870232913,0,0,0,0,0,0,0,0,0,0,0,0,0,0,0,0,
83,-1.1231145013539816,2.6069290388537496,-0.37290555200405606,0.07144623309123688,-0.16405955932463456,2.4037280232640725,-2.0067852313981405,-0.6078627523534266,1.9360473892160428,-3.614419774992342,-8.67243561393444,-17.872856828582854,-0.9522495870857597,-7.501248313570883,4.744917231263329,-7.08902898172277,0,0,0,0,0,0,0,0,0,0,0,0,0,0,0,0,
84,-8.356294771072896,-4.458754793653981,-4.3284200070634995,-6.761299212381438,-6.165560491788483,-2.2375062239890298,-0.08265679296840034,3.118402578663762,1.565623905568458,-3.2217681904446067,-6.5557827403112015,-6.954456103436627,-3.3954763682095432,-3.4824789035772454,-4.353899495948184,-0.44979939468205643,0,0,0,0,0,0,0,0,0,0,0,0,0,0,0,0,
85,-8.643304313504899,-6.565079971320344,-7.741018023993821,-7.238737109555519,-9.913219352509042,-4.87145042013222,-3.6916213776551814,-1.236885838942186,-1.8764044744757484,-4.046476091086589,-7.388865589673742,-2.5495462770182797,-4.827229671370631,-2.1465680686393114,-2.2835942593939222,1.6688747031718982,0,0,0,0,0,0,0,0,0,0,0,0,0,0,0,0,
86,-11.97169748114827,-8.753294672256379,-9.448952177288042,-3.623915338511324,-8.971331826400275,-4.919332879645641,-2.9207406336210884,-9.388243549019716,-2.38528775848377,-5.293836495553435,-11.318871641113788,-8.136875635786467,-4.091762433227444,-4.266175767630443,-1.7772573816803288,-2.5734465683902528,0,0,0,0,0,0,0,0,0,0,0,0,0,0,0,0,
87,-14.363749646457553,-11.617987576486376,-5.7448162126498366,-6.277696113744602,-6.086671190747639,-5.775735940628719,0.8035780051054782,-10.841447331190114,-0.23346387507862687,-3.694436073427738,-4.466375520456452,-7.2634074343690855,-1.0726744106725619,-2.598552501618343,-1.2768575717692983,-0.4214265565254429,0,0,0,0,0,0,0,0,0,0,0,0,0,0,0,0,
88,-4.039686652551712,-6.080314672264411,-0.8633385392317514,-5.678750619600359,-2.4457303306773746,-3.3802318030355494,3.84016997258351,-3.4388550724627205,1.1689087798586826,-1.3012992488140327,10.3158227932243,-0.6078501343851883,0.5012005884743473,0.1197686894017238,0.6456665041663854,1.262175964004495,0,0,0,0,0,0,0,0,0,0,0,0,0,0,0,0,
89,-1.397407276467547,-3.5630126415666794,-2.781273908077303,-4.614171217494462,-3.5325676323150432,-3.875219451757168,1.2106788102433086,-3.7790276427911316,-2.324135841273929,1.2906627552273733,12.968819165095027,3.227676206891772,0.497806200718955,1.5602854768737728,-2.8909914036312614,-1.737008033806143,0,0,0,0,0,0,0,0,0,0,0,0,0,0,0,0,
90,-10.759099726663834,-12.923524120911779,-7.854146579514648,-15.474527493273449,-9.712162926075202,-11.528013220378568,-8.326542608666948,-11.949670806305548,-5.322397169888333,-1.0143336786227763,6.889872078658684,-1.9686778798415077,0.5851716304896968,-0.22994477837991667,-1.3519249305322916,-4.597714365559289,0,0,0,0,0,0,0,0,0,0,0,0,0,0,0,0,
91,-13.929094838729853,-18.092843661935788,-11.427136942392139,-19.135266386477618,-13.250840041610402,-14.621961355198906,-14.305008411468101,-8.985025059981687,-6.442313958869292,-5.0507726339450585,-2.289877830662462,-1.9032860426961093,-1.7472035508110224,-0.2605699874839189,0.048597047588074815,-5.267112155341241,0,0,0,0,0,0,0,0,0,0,0,0,0,0,0,0,
92,-8.82647897314105,-11.063039541458636,-9.126240312795602,-11.527111359296939,-9.939125267958431,-9.840731166048172,-10.777193485316857,-0.6099629337719747,-8.149854984684268,-3.9933433995657737,-13.150717613811011,1.6053504347062386,-6.027584073966544,1.2054659291071061,-11.15573079406478,-6.962059323534389,0,0,0,0,0,0,0,0,0,0,0,0,0,0,0,0,
93,-5.104135890726724,-7.125669543844268,-4.341536105179685,-14.503051813526767,-6.0811173152606415,-9.122486687476055,-8.851770427421656,-9.289267583932528,-9.858407164668321,-1.0137916817531334,-3.4006745845792423,-3.120841006970494,-3.620497315975989,0.07810512752988075,-11.111026549607622,-9.978151136721651,0,0,0,0,0,0,0,0,0,0,0,0,0,0,0,0,
94,-5.621866646501957,-9.580077090101398,-6.316793535120468,-15.82739886653745,-7.2171701411622,-10.794899592298151,-10.423071383161016,-14.00095610737717,-8.309277991261638,-1.740114826783703,13.656658842614647,-3.938737283766855,1.4000790696825192,-0.01742960304510177,6.04579777304609,-5.904317405404175,0,0,0,0,0,0,0,0,0,0,0,0,0,0,0,0,
95,-5.093712426097298,-7.171753778126231,-8.534270758225077,-5.746589237330781,-8.999742857579548,-6.742068907125045,-5.7044875999394264,0.2749415270681652,-6.31920529443061,0.3533315225974789,14.316910728530512,2.5369609645323834,2.2762055204935905,2.658695051224754,7.752401765990886,-4.244133635036966,0,0,0,0,0,0,0,0,0,0,0,0,0,0,0,0,
96,-3.0109358243375084,-4.538012049600269,-5.43206198173344,-3.4685371183852425,-8.578307364080942,-3.977495440493783,-1.6784505534752867,1.3854996677600582,-5.855413235918448,1.6033481735518933,11.555135384915712,0.9873172010202325,1.7044306926756896,0.9448151128440401,-1.5198408858027044,-8.354892849662086,0,0,0,0,0,0,0,0,0,0,0,0,0,0,0,0,
97,2.102635101698411,-2.4017307301765527,-1.9072311806007747,-2.2124189429653853,-3.222501457184734,-0.7441157804546776,0.42652905410226083,-3.0706709795317124,-6.412629361250183,0.0021258251412596962,11.050523309193487,-0.951362451689711,2.343551178677508,-1.320679836816474,-0.02059635463557896,-8.939219191077083,0,0,0,0,0,0,0,0,0,0,0,0,0,0,0,0,
98,0.3548020253608115,-1.0088549675506897,-3.6131612284723644,-1.6310964738234333,0.7385373583678643,0.8896910602949504,1.5008466217686873,-1.8547693948708996,-4.802246687642025,0.8996424958209488,8.433144464833708,-1.5378757523013071,-1.435557119997128,-3.067350956091291,-4.639429110741311,-15.11607980764827,0,0,0,0,0,0,0,0,0,0,0,0,0,0,0,0,
99,-9.212268295062756,-5.731628238748698,-8.853161454772007,-11.646380640950412,-2.7920453772254348,-5.009370445033241,-6.141043200415041,-8.141229274332446,-5.834407173067451,0.6126171170149557,3.3648287151925214,-4.894597688182672,-6.271974930671842,-5.002076706110317,-9.352660090787275,-16.26169416346836,0,0,0,0,0,0,0,0,0,0,0,0,0,0,0,0,
100,-8.875216799096279,-8.309864628102957,-13.005646713949645,-15.443062870124479,-5.611781075483989,-7.630551896872618,-13.970096631114728,-9.778552972614136,-8.11323880876402,-2.384398436332072,-6.772882212454778,-4.386428593224773,-8.415758776846749,-3.146069928987936,-10.004250426209875,-0.927772570917174,0,0,0,0,0,0,0,0,0,0,0,0,0,0,0,0,
101,3.994219635555993,1.5776976874087438,-6.242945385456892,-7.712144511014401,1.716982438172522,-0.4262078830047784,-7.854051328524875,-2.8272163008477236,-5.2950297593645,-2.387947866128595,-3.5188290187912514,-5.494409139296529,-9.220668466319468,-3.1144210595159336,-17.27255160678238,-1.438262190011855,0,0,0,0,0,0,0,0,0,0,0,0,0,0,0,0,
102,9.959536217967994,8.277041866017584,0.9861252194163512,-0.6185254959222561,4.972819982163784,2.6136649728201036,-2.9840872444720787,-3.5039910985920812,-1.971641913939763,-3.077429533560327,5.025549718414659,-9.911958762187453,-8.905560673318934,-6.918865102588658,-16.89038240504359,-12.2816714941857,0,0,0,0,0,0,0,0,0,0,0,0,0,0,0,0,
103,8.006800137950847,7.081478764841833,-0.35188206239806163,4.057119122935873,1.014462385377982,0.43023971920842996,-2.4028904533980153,-3.6840960696840597,-1.99284677360572,-5.445271049656853,0.9011728521291786,-6.070364839267782,-6.612822943165966,-5.530241802505131,-7.53327153047298,-2.6306942597130636,0,0,0,0,0,0,0,0,0,0,0,0,0,0,0,0,
104,5.838137727535852,5.4017112923846895,-0.4802767532787584,0.3333794454901664,0.6661797689050672,-0.2987076984265258,1.042081995663338,0.9165592201831032,0.9654037002538303,-6.6575713248056445,4.548593953553777,-4.033134771832692,-1.4194389288660645,-4.9132017755238735,1.796977624813664,2.731920764123018,0,0,0,0,0,0,0,0,0,0,0,0,0,0,0,0,
105,9.468765058497453,8.051848756786441,4.198108206760821,0.43808602491098725,5.770372449515946,4.264180493487103,3.4598572278445943,1.6391168902073616,4.551291909821472,-6.413477134846325,5.209831040958065,-6.008673418615729,0.2370142673582336,-7.584241231595392,5.187687623014867,-1.5950886099955675,0,0,0,0,0,0,0,0,0,0,0,0,0,0,0,0,
106,11.755585216347214,8.335481997867106,1.5253869997375347,3.3970231982334695,5.218257942455992,6.052155272983768,-1.234011888561767,0.2775888723136646,2.254939142765963,-3.342539525104101,-9.976427206681109,0.04415930134813095,-4.545929517082762,-5.108569331090351,0.9907840412612146,5.32211319580211,0,0,0,0,0,0,0,0,0,0,0,0,0,0,0,0,
107,10.6148009551723,5.904301233668463,-4.269329483269004,0.5519609634594431,1.17344120795795,3.2594071685241346,-4.459626609486193,1.826246271713977,-0.5635832268703922,-0.858779960662531,-12.493883931617859,4.039785503298063,-7.056720943831891,-1.8057263908995083,-1.0564248585978788,6.108991659916185,0,0,0,0,0,0,0,0,0,0,0,0,0,0,0,0,
108,12.399332735293676,9.304355288970577,-0.22344958004475046,2.5156180462189113,3.55342472210787,5.187039078586558,0.9154121787109162,1.2139173666643401,-0.3893780185885163,-1.1125486197203003,0.766006321241008,1.1623756120196873,-7.020774688843545,-2.1195509387478353,-6.6309092703381864,-6.249130010593767,0,0,0,0,0,0,0,0,0,0,0,0,0,0,0,0,
109,14.070497544048244,13.752901077214823,6.176816369082363,8.543758501500509,7.779194599172396,8.48942604219545,4.634357379941481,1.0484553471123483,0.05436013381010696,-1.7297427083258015,4.917248463104173,-0.6018283557570072,-7.74158747643169,-4.075561587166618,-12.52995699642527,-9.68911121051444,0,0,0,0,0,0,0,0,0,0,0,0,0,0,0,0,
110,12.201066211637688,10.570546339159346,3.0566161497877875,7.43853104765012,3.551326555545952,3.9553363735914076,-0.1519188638631448,8.601392594244045,-0.7566328828130366,-1.8586305105446996,1.0316241553456251,1.2285439423423696,-4.682104596904665,-4.024669404664365,-5.669596009901355,-1.0892934474984308,0,0,0,0,0,0,0,0,0,0,0,0,0,0,0,0,
111,12.502501489191296,8.772157109783848,3.9653435564686257,5.4906380423894925,0.5987914732430681,1.381416049737228,4.9005716264624155,15.534789005170191,-0.24923808097116762,-2.8993486321483743,5.621773770125699,0.7613102264980114,-1.9320084301402716,-3.930612380989146,-0.998757310532838,2.2101069635365747,0,0,0,0,0,0,0,0,0,0,0,0,0,0,0,0,
112,9.945664165850346,9.966680577679469,9.36024122860529,10.424803191317839,5.428168024337747,4.977109838859803,14.276943407268012,6.278057035981423,0.750373607634117,-1.5664948591645356,14.230861556025957,-0.3298722531139049,0.326071801286119,-3.7268666178536876,4.522047074096193,-1.7596030641694895,0,0,0,0,0,0,0,0,0,0,0,0,0,0,0,0,
113,12.162975104401767,14.555335780072348,11.535733535691172,18.135720878494055,12.02065427295527,9.140997676909276,10.377170603156266,3.6381996105343184,4.257522974168737,1.1766415791946514,12.024676652021753,2.444302254597744,2.094338476915567,-2.5346584013403657,7.75914492808046,-3.010865907255827,0,0,0,0,0,0,0,0,0,0,0,0,0,0,0,0,
114,20.353692694586293,19.292844984776202,12.419863839876264,18.832637599208013,11.79883705365011,9.56812308418273,5.962075661392092,12.554671087074976,5.471140042040616,3.6478327230775562,4.5935692168077225,5.4319314075686975,1.4843602759563481,-2.2163103570823637,-2.4375258489304485,-8.471539023050855,0,0,0,0,0,0,0,0,0,0,0,0,0,0,0,0,
115,14.860869108444916,11.256676315882686,5.244828765281127,12.636624523589,3.6039533652024147,6.234634151036666,7.012783890315859,5.436525825641965,-0.20758081506561155,4.850125696001257,1.1055851979270628,6.059939342410715,-0.342103799937874,-0.9069212085994138,-4.00239735701269,-9.065672868880792,0,0,0,0,0,0,0,0,0,0,0,0,0,0,0,0,
116,0.49222896835452445,-5.173225131475448,-7.034871849426267,-0.14349807499719702,-4.527150799572837,1.5202947533977635,-0.8262733755434937,-2.744733448891438,-7.010292535453104,5.454652934887719,8.717353071241341,10.785047105910394,-0.9605181229274677,5.409569755354838,3.4766799851809367,7.343680020510587,0,0,0,0,0,0,0,0,0,0,0,0,0,0,0,0,
117,-0.8597855714275369,-6.208571337330838,-5.397036760722898,-8.2575126553903,-3.6320623571072588,-0.43337155752207934,-8.04295410973694,-0.2916583751226227,-5.447278754729311,3.835239958097546,13.36746017514939,9.667437387327425,0.09020949521156041,7.285972612078545,4.691441419972186,13.439733364460524,0,0,0,0,0,0,0,0,0,0,0,0,0,0,0,0,
118,0.26623411710124856,-3.7455449617495304,-1.475955256219848,-7.820664998274523,-1.6519077402115414,-2.8100957640632913,-3.600624570961955,-3.282795778402459,-3.120293764178939,2.6988382393305557,4.335122864773496,2.441303869529051,0.9828191915231699,4.503891934896302,3.9481702772888454,-0.2836770166923157,0,0,0,0,0,0,0,0,0,0,0,0,0,0,0,0,
119,-9.127923922039699,-16.854724924174732,-9.08217186376784,-15.904574693565749,-7.895243885958649,-10.05637557555903,-1.939448117765366,-11.34189447483351,-5.206254737559185,-0.4209468198738051,0.3706642936225677,-0.08849836254566412,-1.1015359757607683,2.6346790606536814,-0.13324155998876108,-4.1679357092749445,0,0,0,0,0,0,0,0,0,0,0,0,0,0,0,0,
120,-3.4515250237122075,-13.258332108094265,-2.2391889399642793,-15.489672741356031,-4.054826791140073,-7.73305019194396,-0.5189825295212813,-12.911659981557406,-6.221991245750516,-5.116145421023802,3.225845758073966,1.626192742570531,-1.4791978722416204,1.3560921019661905,0.06204322069346091,2.907527835598306,0,0,0,0,0,0,0,0,0,0,0,0,0,0,0,0,
121,12.917148529094874,4.62464381905815,13.257110046132738,1.7078304711104124,8.42199624540325,2.622722131903288,9.231414810012083,-3.913421505130785,-0.37943875470607935,-4.1677673984638375,2.8106022689192205,4.339148273121467,-1.3012761422519432,0.6166135032918056,3.0738092362713,5.234855807455869,0,0,0,0,0,0,0,0,0,0,0,0,0,0,0,0,
122,13.490349432840361,7.576943220498663,13.720760245156455,9.38432232196216,10.454087729285618,5.311844236309867,14.723149072469724,6.40530658277909,3.5105660886695595,2.4582596896382576,4.004380123122708,8.339675055180884,-2.649524091927244,2.0512010024265024,3.999607490613606,3.1791047131269714,0,0,0,0,0,0,0,0,0,0,0,0,0,0,0,0,
123,10.032762283601784,5.296118020125903,10.69646077508203,3.5958789388811994,7.953102112170214,4.378320323993435,9.299595578101062,10.403153299237445,2.4385432506799374,4.364293403178902,3.8426734432289003,5.597189350309676,-4.8705609000061205,1.6207154911728594,8.928520558441166,-1.824684241692518,0,0,0,0,0,0,0,0,0,0,0,0,0,0,0,0,
124,15.727657457623081,9.172535370352776,14.54479658097388,5.8620346283411635,10.510616067177196,8.64079358281036,9.365337935162103,14.24637098384379,5.901623432499411,3.2326179563663233,13.615863620080141,3.3548626742201977,-1.9349915701522633,0.4780387962040926,8.768366334934406,-4.0649967937102875,0,0,0,0,0,0,0,0,0,0,0,0,0,0,0,0,
125,18.38343687568849,10.46738381847318,13.280401176913486,11.43734211210571,9.645260381967361,9.738448138139816,13.277250408659043,13.813286264216075,9.779889954768318,3.5561230988952737,24.4651669158901,7.614327226180048,2.199368725491567,0.5806078966497878,-6.345305070238705,-1.551740147249685,0,0,0,0,0,0,0,0,0,0,0,0,0,0,0,0,
126,18.059204328181664,9.331934180395578,10.50798447353938,5.930006842837656,10.121980370684923,6.415378708292195,13.477689615391355,5.7268095918965685,5.696680164157726,1.0173291450004385,14.329650329796657,4.639923368540252,0.4547173726615945,-0.12479896606434693,-9.868830396150422,2.5503688673105955,0,0,0,0,0,0,0,0,0,0,0,0,0,0,0,0,
127,15.504808218558253,10.64905550221556,16.45340707388368,4.73472772296391,14.410967231000924,6.644449181595419,14.873337444438192,1.2347651316697608,5.6578174412111935,-3.062417731748745,7.186847201264705,-7.122037000994524,0.43505535113150984,-4.709836153492063,4.1755841613074125,0.3656728591220677,0,0,0,0,0,0,0,0,0,0,0,0,0,0,0,0,
128,17.583375146140966,16.199429991687353,22.839146885352065,14.796813672190652,15.08999654185584,13.022046493568695,19.106764397238692,11.022741303204043,10.36068042422017,-1.9924232424527872,7.845020407853376,-8.033900545697563,1.3546328920259754,-8.118931468307416,3.794583525702606,-9.543655473859005,0,0,0,0,0,0,0,0,0,0,0,0,0,0,0,0,
129,19.90695564009961,14.226506398563927,14.94564357964984,12.693415549218955,10.907044205650081,13.44748544066232,18.360243164522473,20.41685641977248,9.947274995840075,1.8380490802965852,3.085086424941778,3.2708370724695754,-0.7373927917106826,-2.6556840387724705,0.032760655744525025,-7.429552468560324,0,0,0,0,0,0,0,0,0,0,0,0,0,0,0,0,
130,12.052360564417583,4.927323063695653,6.279503108983832,4.846091834180555,7.517346853456758,6.671146109540615,14.924370277404492,13.54282862509939,8.373455269401447,1.9153099999637249,7.897954339771658,3.4123316573672184,-1.1319469598890706,0.7122041006734889,3.176914284040855,-1.244689729123543,0,0,0,0,0,0,0,0,0,0,0,0,0,0,0,0,
131,9.485775184516463,3.784901531597008,7.178900926012453,7.594567591382443,5.602908384411144,4.709074806272923,13.518948724398193,0.6243215280584167,7.935660900774678,-1.9761379276067714,15.906945851173688,-8.564506421580333,-0.640275120209651,-6.16623138034609,-3.753537102170803,-10.869798449905574,0,0,0,0,0,0,0,0,0,0,0,0,0,0,0,0,
132,21.14099638613593,15.720983280035938,13.989140524748727,15.582613286740887,12.191282520711916,13.021137303965439,14.124233733052542,6.905600999059054,9.465002262551565,-2.0883455068407244,12.53440114583708,-7.6716476340521496,-0.7233389829664532,-8.447671698726893,-6.253718259491869,-15.36096113598969,0,0,0,0,0,0,0,0,0,0,0,0,0,0,0,0,
133,22.3149229152856,20.13503116931643,15.64818824086106,14.499154378825157,18.278301125407072,16.142724177567242,7.222121129035369,15.96961709886508,10.6629284372967,1.9818265575531342,6.886220584455501,2.6863032869304817,-1.6248857642049046,-4.00655208680179,-1.6760403666060881,-8.558727734796403,0,0,0,0,0,0,0,0,0,0,0,0,0,0,0,0,
134,17.22725018852853,15.89981404854747,8.879786656903258,8.929675742686802,14.924935676378604,10.688897898441734,1.3754389180568243,6.963958818250196,8.210230205167178,-0.14704974262406267,-1.4542460262192662,0.17968886892437297,-5.33399404681478,-6.044826793841452,-9.675266313454657,-10.023539803017673,0,0,0,0,0,0,0,0,0,0,0,0,0,0,0,0,
135,15.723309399610592,12.417993869314348,3.509669598237065,7.160972995533945,7.968056992718659,6.434640879921448,1.3456441421071943,2.9367983320907918,3.9453755257354572,-1.7364719766443812,-6.913816225449736,-1.6683716684891294,-5.682054421161894,-4.697366252434833,-13.990253680271962,-6.273422600524,0,0,0,0,0,0,0,0,0,0,0,0,0,0,0,0,
136,11.699391912215589,8.241442167843196,3.1374885210233074,3.607787717129405,5.224084387585428,4.820431995212319,0.3047334202243164,8.617327608684427,1.0020442200111006,1.566100268622975,-4.9637673677085274,4.349986561622856,-4.272240645285208,2.5507239252200122,-7.97950725007513,9.922395707169345,0,0,0,0,0,0,0,0,0,0,0,0,0,0,0,0,
137,10.245881957106029,6.085595592541559,2.589761156695417,-3.7462801112445163,7.433200524543551,3.326690030723512,5.458954516514687,3.8293339112011573,0.6547661021908908,1.804043780622095,-4.251157066362111,0.5512608864437141,-4.170801496692391,0.819299978197094,-8.360525972170151,4.712033136944589,0,0,0,0,0,0,0,0,0,0,0,0,0,0,0,0,
138,10.08501014745157,5.803254729522891,1.4639963870858637,-3.382978005375648,5.486459113788001,2.1804551719482603,13.042870620531268,-6.5004320206382324,4.684798298295647,-1.8729172672972538,4.948741195988276,-9.05833149021916,0.4340583716726627,-4.829903819024679,-3.5345304247679294,-6.443600196487562,0,0,0,0,0,0,0,0,0,0,0,0,0,0,0,0,
139,6.7903317925205045,5.121069375620451,-0.11625483717941165,1.8267947263517357,0.2576592893821328,2.2865163228200487,12.70387946528178,-6.146319501604729,5.364142883521282,-1.2482578509585522,24.03190085940424,-4.076524972670924,6.9060011258138445,-0.8766777797656857,6.970321873949722,1.5329438053615227,0,0,0,0,0,0,0,0,0,0,0,0,0,0,0,0,
140,5.636977549006701,5.122142679315019,-2.9162297767551166,-0.5184966405293636,0.33445859864264094,3.203416594216492,8.29917045470745,3.5064217082334963,3.3976649924992017,2.56884329002051,23.489865243811238,4.432045973116317,6.170725457750642,3.7543883209714153,4.093864942547711,3.184853695922075,0,0,0,0,0,0,0,0,0,0,0,0,0,0,0,0,
141,6.0987173681104565,2.793618678507613,-5.047346476648528,-2.114065264239855,1.8735926711281081,2.991778740708881,-0.7438505682768266,6.311784239715514,1.4503612419915868,4.637467448787135,10.163708383733791,7.194256744350966,4.656842754160209,6.496542178936039,6.441013323305889,6.77371049741685,0,0,0,0,0,0,0,0,0,0,0,0,0,0,0,0,
142,8.730006359186788,1.905824507803544,-2.5137293889891055,0.7686986613188793,3.8721154001419222,2.059325827030065,-4.839496449498071,5.188041879026429,1.0193396523415856,1.9679260017964566,4.079136235824414,5.137854954551543,2.9926883015554537,5.402675565499507,11.697775925125612,13.78959393729798,0,0,0,0,0,0,0,0,0,0,0,0,0,0,0,0,
143,10.034643288965697,5.081158577012715,-0.403130015346008,-1.446786043900417,4.887058909677492,1.3930047229147675,-2.1964282866212272,4.2651897713382,1.090384986629914,0.1613445289012816,1.8435648905786053,0.529381908571537,2.4679985082540483,0.9180067368860136,5.869817693692774,2.1907382695398345,0,0,0,0,0,0,0,0,0,0,0,0,0,0,0,0,
144,4.913414790783918,6.248041024690679,-4.165394898397608,-3.2815193265103773,2.562083062683044,2.6093932724058675,-7.246469656836524,-0.38246002356258657,1.9122985829048957,0.9974387969466463,-0.49186634589477407,0.22956800612861628,3.3526867128380786,1.757732587965613,1.858637163058134,-2.990788763030072,0,0,0,0,0,0,0,0,0,0,0,0,0,0,0,0,
145,5.876416830171905,5.923957877528224,-3.874194509317391,2.033123235369814,4.195104460690715,5.179705726865308,-6.9160625358260575,3.475632385710142,3.6762154895059105,2.349850475919645,-4.503438038177494,4.354145973978639,1.735995266115392,5.0039096394801135,-3.1111583915325056,1.4662288784813073,0,0,0,0,0,0,0,0,0,0,0,0,0,0,0,0,
146,7.781222828228778,1.6382460498359137,-1.2696119376176682,2.029271680319866,3.783627957199144,1.7811837470098766,1.648001039895675,3.8294371315113978,6.074167542458351,0.7980034185053881,-7.67442743430165,2.53104478301049,2.930398562068529,2.7998824666373316,-6.449858028644171,-3.8305713042457477,0,0,0,0,0,0,0,0,0,0,0,0,0,0,0,0,
147,-1.6272731111018857,-2.8150016067451133,-2.127979547267657,-6.368020846298776,1.0181193136665456,-2.37239838264216,5.967545596689263,-5.556892592428184,4.914467469612739,-4.260018418794148,-3.4798677535436324,-2.4226639744340757,6.325349267872856,0.41747929982619647,4.343072969237189,-1.9127946921205936,0,0,0,0,0,0,0,0,0,0,0,0,0,0,0,0,
148,-3.15771442858599,1.1155303726461057,0.18139256479518906,-4.324341443901005,5.079472592872293,1.272337993737807,9.827098889282183,2.092946006850241,5.91656514397547,-6.866326214992381,5.702942243515878,-5.951369297448226,4.635941217111262,-1.7097926709628695,7.960449909709064,2.2034539128160855,0,0,0,0,0,0,0,0,0,0,0,0,0,0,0,0,
149,10.634350427127004,10.22000269126137,5.688135499660234,9.191308704880214,10.793721770415871,9.546545982825108,15.198500156705578,22.73795717660633,10.502552054261152,-2.6605248947629185,13.85986633611444,-5.291605372233285,2.6943290759319076,-4.051782377696014,0.20963603063277958,-4.7482251843188195,0,0,0,0,0,0,0,0,0,0,0,0,0,0,0,0,
150,7.742639655349649,7.113813420272734,-2.0362457857756198,4.61447685104271,3.528521018505998,8.320424083783251,10.015684007817256,21.313773741789987,7.506190924971754,-0.7663481795190137,9.650822283788308,1.135300330789292,-0.8126790114104878,-2.9555964519097273,-1.1222197624464343,-2.701790298215615,0,0,0,0,0,0,0,0,0,0,0,0,0,0,0,0,
151,-1.2477474052620607,-0.5250880095232731,-12.541267823869276,-5.350637818845584,-3.2466512387443345,3.30837132254031,-1.2697394027716342,0.923828569011917,1.2161690799256988,-2.4118178825597596,-1.8176399004072579,4.635011984568351,-3.7042528124823093,1.250395994553834,-3.2771180093734813,3.500347155510635,0,0,0,0,0,0,0,0,0,0,0,0,0,0,0,0,
152,5.3191689098098465,2.695504338392098,-8.749377787124104,-0.13030921222237168,3.4724156764413294,6.988685384661167,-5.295489976961022,-7.4865361434952575,3.36704259041133,-2.6678124866573754,-6.805638840595151,-4.303380506915161,-1.5765724074546839,0.23622380936770782,-5.778765161578832,-3.685443557857461,0,0,0,0,0,0,0,0,0,0,0,0,0,0,0,0,
153,11.409433384046153,9.158825548500786,-1.6172107977425156,5.8355028949641365,10.013432280012083,13.710837714656336,-1.270676343902906,-5.346855286103022,5.75105243388397,-3.7259977601586627,-9.668385211613575,-12.973874169834701,-3.007270082410386,-5.920028469849591,-1.5929300691875952,-11.17023814133379,0,0,0,0,0,0,0,0,0,0,0,0,0,0,0,0,
154,3.6292458274893846,4.752349937440854,-11.512632843072183,1.5983648217597164,1.3921130964541106,10.505145933255633,-7.999503905394363,-10.05559699910446,0.8480219471311585,-4.382313257193047,-14.815717684402799,-4.807860200789648,-7.815888906511802,-3.59111399459141,-0.9339399316896575,-1.1928237943860331,0,0,0,0,0,0,0,0,0,0,0,0,0,0,0,0,
155,-3.9788358557642454,-0.14057279472253015,-23.510386192649804,-2.1610907371617145,-7.300083898958647,3.680035448895616,-18.332503978519405,-4.167122789222162,-3.9147759415326675,-4.356531620619947,-20.933099612587554,3.2518431631721256,-8.599916503135411,2.221373202767751,-4.879357014493898,12.394821752019915,0,0,0,0,0,0,0,0,0,0,0,0,0,0,0,0,
156,0.5256023930785148,4.801435038184231,-15.607547693180237,3.384351684171243,-1.7664456568271092,4.56126899071846,-9.674656287016084,5.659672757538807,-2.0005088330511,-3.337118146643931,-23.95619117744819,-3.491033109926576,-4.762995412605491,0.8181002653621334,-11.644054482754683,5.282571142121466,0,0,0,0,0,0,0,0,0,0,0,0,0,0,0,0,
157,10.224344398622566,14.259698134528612,-2.9027125217237533,12.039023270599884,6.557606226943946,11.292924670148697,2.5585441067590935,5.503203214695478,3.6237375138365167,-1.6138613629782839,-19.382440275534265,-7.546591449290943,-0.7540047506960832,-1.7061844322906126,-13.875732455174862,-3.6399330805608656,0,0,0,0,0,0,0,0,0,0,0,0,0,0,0,0,
158,7.434785821808287,14.641454561212514,-4.786947203536222,11.7354697006496,2.8376268015285504,10.392706817624044,-5.350919630858833,3.717887422915771,4.126051718032599,-2.024095330364176,-8.230716028577362,2.1495947982966754,1.6071969568069306,-0.13967155822047062,2.62944732248323,5.410721631300383,0,0,0,0,0,0,0,0,0,0,0,0,0,0,0,0,
159,-0.041598757509428985,5.130999430256499,-5.953471244820314,2.8514748847179807,-1.564890294690012,3.5433208286737843,-6.480412527764115,0.6397893173744769,2.6724342983441005,-4.473563489039876,-3.9538743584706992,11.03703093596475,2.17472250845843,2.8983698762726533,12.866582239667196,13.217349734344907,0,0,0,0,0,0,0,0,0,0,0,0,0,0,0,0,
160,-0.3765208895085692,-2.675143160081369,-0.579353239380815,-5.733295193287601,-0.019197512235127334,1.942008689504334,4.039633457550776,3.308946211760313,2.3859973282821585,-3.959617146248476,-6.0477406023300375,11.556675546163206,2.4631579554303897,6.4899467424627915,0.10789096627121353,4.533136497627421,0,0,0,0,0,0,0,0,0,0,0,0,0,0,0,0,
161,1.3810229343854132,-2.6134521200680254,1.2056552537244656,-6.201923178706444,0.5148620569094433,5.139456167219844,-0.44243645613185123,3.108946433141515,2.348325889214081,-0.660947217709662,-5.764678692749456,2.936541945751955,2.280421206757765,6.620102617844381,-3.5534416244127627,-6.103303147823006,0,0,0,0,0,0,0,0,0,0,0,0,0,0,0,0,
162,-1.4555296769652912,-6.207090467097096,-1.8383110838704155,-14.246229030484301,-2.61704817664895,2.271420330402492,-7.945338091544684,-11.672685881137667,0.8183465604566038,0.47404955833646056,-9.973699166220271,-6.992293896411965,2.699513404183918,3.956551820383595,9.033230240952875,-3.2163241497082478,0,0,0,0,0,0,0,0,0,0,0,0,0,0,0,0,
163,-4.047905488881156,-12.442347913314244,-0.5393288594845558,-24.49250519555612,-3.1293205380127205,-4.104280052089251,-3.6928793320536,-17.835015836428354,-0.46214473020791047,-3.3955386706393966,-15.430625040108133,-4.130483076304799,2.6426828576378227,2.236913577263877,9.074774832894072,3.9202374505520154,0,0,0,0,0,0,0,0,0,0,0,0,0,0,0,0,
164,-3.762196980744463,-13.597022133053542,5.857783110276273,-21.65074535462275,0.2426836712442082,-7.069481045997733,-0.7074615338175931,-18.007372778395514,-0.8270826901811006,-5.61100295911973,-11.875570367839622,3.7688159824584346,4.357774131220381,1.4091713605419471,4.881905271323262,2.160157621755735,0,0,0,0,0,0,0,0,0,0,0,0,0,0,0,0,
165,-6.432387939071688,-14.310978836274344,4.024470312873262,-24.980834769615896,-2.563177247965541,-9.130285506122519,-0.07088110801980463,-20.399652342345583,-0.3235537240066577,-6.632717040571002,-12.61591643982927,-3.775749119507907,5.1596476968938205,-1.291603337677003,6.095645051840265,-4.915576448819247,0,0,0,0,0,0,0,0,0,0,0,0,0,0,0,0,
166,-8.642236452512847,-13.24502624382805,-3.18190337097316,-26.98582094994717,-8.253911488291692,-7.821614570585936,2.3016492146195873,-14.30486602227569,-2.9244853244229745,-4.919882518628221,-12.157599217742842,-10.172747472513706,3.314222960619084,0.617798706244983,7.852054545249999,-9.725439546299365,0,0,0,0,0,0,0,0,0,0,0,0,0,0,0,0,
167,-5.333885328419015,-11.522557373239891,-2.378139920973254,-17.316072548024636,-5.8594584062540065,-4.273341916152958,-3.2062197372868155,-8.492941299469535,-3.3283396916145946,-2.314655007774988,-10.430333897556881,-3.0877338207820912,0.046111021257054574,3.138343403731156,13.7322204192993,-5.2928864025536875,0,0,0,0,0,0,0,0,0,0,0,0,0,0,0,0,
168,-0.041787303611641846,-8.535611484148276,3.41789800713849,-15.193151068440557,-0.436050210311862,-2.6526020779614186,-3.7998636739405214,-6.5274812201910635,-0.6151303046004912,-1.8761679347569427,-17.957421086319677,6.0213761431834385,-3.61218241862953,1.417334371589149,14.66363646711601,-0.9201721995342584,0,0,0,0,0,0,0,0,0,0,0,0,0,0,0,0,
169,-1.938118636597295,-5.83380545088491,1.4526977066979612,-16.056261070760996,-1.2876685787119726,-2.2338922620932067,5.762128970893457,-7.939761111933109,1.942141578455825,-1.3472181037014614,-14.24108751008225,1.6498877727193886,-5.343705088742269,-2.2331033427280147,3.812450692807964,-9.883991732562187,0,0,0,0,0,0,0,0,0,0,0,0,0,0,0,0,
170,-6.371650065383335,-7.8602871164023895,-3.4944632852708395,-12.905528698061019,-2.505711741746296,-2.676441333418097,6.683690771140263,-8.750603249021424,2.6875402197009812,-0.5086549965712805,0.20733593148323282,-10.919013780689117,-0.8245206862280128,-5.539601750570963,-9.51194790785343,-21.267077931234365,0,0,0,0,0,0,0,0,0,0,0,0,0,0,0,0,
171,-0.7129890631757121,-5.852120957053103,1.888078819988806,-11.011299795252683,0.0370277924182858,-2.5284673278862897,8.836336031853378,-4.081148839731455,3.223835214565147,-1.7635935328424512,2.9917889518104,-16.965468365489404,4.854431012566743,-8.913424674642496,-16.597848865844835,-32.902472498279046,0,0,0,0,0,0,0,0,0,0,0,0,0,0,0,0,
172,8.224372949084596,2.188120190152574,11.247901422802826,-5.551947462144412,3.9474831003631436,1.0605170461748799,16.04833515908078,-4.8079151498761945,4.487678800910182,-2.097838564950309,1.6442067914987994,-20.598693358656888,5.682745663997801,-12.1270376424482,-15.981055542648575,-43.184456544757715,0,0,0,0,0,0,0,0,0,0,0,0,0,0,0,0,
173,1.4858302911812586,-1.3475433675767192,3.7253448419166517,-12.555628014213426,-0.5137756940075633,-1.5340817472932429,5.63669561164717,-13.541612428930335,3.6119595097981367,-3.6459774225306667,-4.317628945423451,-19.768772937417513,4.454234041606679,-9.746087119928657,-8.978162774430658,-23.60908010421928,0,0,0,0,0,0,0,0,0,0,0,0,0,0,0,0,
174,-4.7577481116050535,-5.842365180547461,-6.198710614121097,-18.952616760348988,-6.258018920215278,-3.61341187244858,-6.756708217918785,-11.869630740120456,-2.311151938931239,-6.724984447913226,-17.14757454128138,-8.16534324173442,3.4564563449443035,-1.6961924092123262,4.751619343279323,5.562156517412646,0,0,0,0,0,0,0,0,0,0,0,0,0,0,0,0,
175,2.0744177194548428,0.3877308537113464,-2.9711307024511626,-4.1728055167185545,-2.3435590999960283,3.107233614145173,-9.374755707817641,-1.8473860902961974,-3.6600550424225986,-4.791381176385997,-23.787438562936813,-5.086473703963925,-0.05940001467310907,-0.1412397676771704,5.986056556121582,-1.2271033243310931,0,0,0,0,0,0,0,0,0,0,0,0,0,0,0,0,
176,7.203097130630937,6.933329344088108,1.9521855619921098,2.6973626629136334,1.8154974107308703,6.13348487524901,-8.532332561755979,-3.330196303486858,-0.06944780614258406,-0.5933133211316388,-29.42249892235059,-9.739407517569077,-2.1747242725809173,-2.772037997146853,-5.160312736900849,-12.98526241133785,0,0,0,0,0,0,0,0,0,0,0,0,0,0,0,0,
177,7.16140931211082,10.350931568035065,4.520807100664868,-2.7905478630142113,1.352785580097759,1.7764868456102505,-2.6446719028711243,-8.750024292973677,-0.49752859349206346,-2.799292947068828,-29.26669906488781,-10.101887935800917,-1.4439644227865074,-4.814458305988801,-5.398800686354981,-7.665680400950805,0,0,0,0,0,0,0,0,0,0,0,0,0,0,0,0,
178,13.110169275708714,17.04622616448313,10.32343556325894,3.1473200748020247,8.377338585233048,2.829316790847926,2.8850906911453507,1.9645074211810325,0.9984535333513662,-7.123095317346582,-12.249869219272384,-11.356429803378802,-3.32205843703273,-9.45601232518429,-5.45682730274941,-10.068507332918522,0,0,0,0,0,0,0,0,0,0,0,0,0,0,0,0,
179,13.084796112197395,16.574908112275786,9.436663273814965,6.14181524691238,10.008884480794052,1.7910165143515755,1.4154663112874175,6.535635129726316,3.4309486571412435,-7.920682745374975,-6.834822088032098,-10.903636695685435,-6.906216008251036,-10.894067061823321,-12.379362280383859,-9.46479222263001,0,0,0,0,0,0,0,0,0,0,0,0,0,0,0,0,
180,4.838134518851966,7.8502558550926835,3.408461989416651,0.5238064334956078,-0.7449976033120933,-7.393848198794096,2.9800942189351147,-3.2208114663542062,0.49771509519439405,-8.019749673357936,-15.99992368742231,-12.109726358515502,-5.994353652067588,-10.063121576936496,-2.9786864067853713,-0.38984357895868627,0,0,0,0,0,0,0,0,0,0,0,0,0,0,0,0,
181,1.319335011580911,3.625520879778378,0.7194309468335653,-2.348394218084021,-6.348227612887889,-7.427633681043719,4.609901808103867,-3.5454143480562728,-2.40389505842775,-6.555227342410106,-13.685940806752143,-17.601342427371705,-3.516567768534415,-11.266343859103117,8.718320924930879,-3.626365300425803,0,0,0,0,0,0,0,0,0,0,0,0,0,0,0,0,
182,5.295785986473481,9.380764352383627,2.469714183266966,5.192807936563213,-0.07132459437462302,10.39711894034707,3.6624835464853422,6.886804569228186,-2.469288813760059,-1.2599641381762154,-13.245276302490353,-14.415081354749546,-6.880786105203981,-9.972178720709678,-0.03569263432103753,-5.268571187204735,0,0,0,0,0,0,0,0,0,0,0,0,0,0,0,0,
183,8.145576941395486,13.693941532325695,4.087072546680726,16.5938725977488,3.4659196321248067,17.132737289377904,-1.1781077786972123,10.818298068342,-3.591727428038169,5.249894223936849,-17.000741409073143,-3.5444780601914516,-7.4700851366779375,-4.4134550985452705,-0.913244631473404,6.095241112215852,0,0,0,0,0,0,0,0,0,0,0,0,0,0,0,0,
184,8.030989902750026,13.66758802378537,4.737994581850007,17.226832805358626,1.8378088064737668,8.8484488498457,-8.220004485253309,7.2870050957785075,-2.7756875040364264,4.792241966502814,-13.71139723783962,-2.5231436164582703,-3.1716144808795974,-2.135429019052026,4.075541958627625,7.276593579587683,0,0,0,0,0,0,0,0,0,0,0,0,0,0,0,0,
185,3.4476415692539817,12.052483893684833,1.2858083224507766,8.569354660724152,-1.9072791757725014,8.584421448487568,-12.902934480489701,2.0749398841559525,-3.3895706236044134,1.6540098533734238,-11.386928821409754,-4.373757962319246,-1.9007522166460546,-2.4304647260245247,3.7023829090194056,2.2854085407297315,0,0,0,0,0,0,0,0,0,0,0,0,0,0,0,0,
186,-0.3155675810941787,9.322544009796815,-3.252432309690292,4.755576691069415,-3.4566074066127257,11.97750085550944,-15.462488404191632,-0.0945196873716938,-6.255698331032036,2.387269844962077,-18.895127002711604,-2.9763221228659518,-7.930289547652876,-2.579305976877933,4.700007330666182,6.474429627127609,0,0,0,0,0,0,0,0,0,0,0,0,0,0,0,0,
187,0.3086212746094077,5.993354217966655,-3.096494940334111,1.9901489406496182,0.26613468258817363,8.869457760087798,-15.91622491915156,0.22885946099744103,-6.965811073878356,5.726548989750739,-25.73568075600818,-3.490755465482877,-10.508432160783457,-0.6038967270192757,-8.801429846011622,2.68610279966307,0,0,0,0,0,0,0,0,0,0,0,0,0,0,0,0,
188,-3.9976267367057687,0.40848175066031445,-5.715294136613281,-3.3599170431370027,-2.7924283207432836,3.6747839659878707,-16.357890318385685,-0.7250146927058907,-4.965474144080886,5.32522837890744,-24.003315840409385,-5.996617798679324,-2.9115337096707137,0.012445070036406491,-17.43760942816705,-2.1894320643091554,0,0,0,0,0,0,0,0,0,0,0,0,0,0,0,0,
189,-7.01064979509934,-1.9796215534098422,-10.973623543125584,-1.3779646015261875,-10.358857018428537,2.8277021946059904,-15.974620534818783,0.9397526195253789,-7.325003008249453,4.414225857903148,-18.15550198513089,-4.493932684068483,1.4564632652980194,-0.7957922793197554,-6.476889983022517,2.570637983484512,0,0,0,0,0,0,0,0,0,0,0,0,0,0,0,0,
190,-0.2915593573791142,3.5256943321122236,-7.173868696795381,2.9240888417026554,-7.693756633337443,5.761980469274306,-10.903283990217048,4.376610625795664,-9.061716564057463,6.558714166445611,-15.911111433115082,-2.55800452052911,-4.877021849626608,-0.4845200591275116,-13.09889944619431,-0.8473346902423231,0,0,0,0,0,0,0,0,0,0,0,0,0,0,0,0,
191,0.6447538968418485,8.660973304677782,0.9205097828878621,5.161637068065602,-1.1871597642169718,6.483247173176636,-5.479689134986472,5.914824682378907,-6.405293661332202,8.08285513233939,-16.882865091153768,-1.7591382647487563,-7.159864217977741,-0.34145067703905596,-17.712469037132745,-3.6807229246064104,0,0,0,0,0,0,0,0,0,0,0,0,0,0,0,0,
192,-8.743977511672938,4.833542799599499,-4.466366875752101,6.067085414925785,-2.1420633911661184,4.846603049679743,-8.537698787559421,9.237033261266475,-4.730331150249484,6.3731192117359186,-13.00673828734163,1.0212303139046384,-2.8574390243730186,-1.2084220814960602,-0.6292575379567928,4.005396071139375,0,0,0,0,0,0,0,0,0,0,0,0,0,0,0,0,
193,-13.100344199822871,-1.6170256400563119,-17.712874305739902,1.0009706054291598,-7.8800395320097465,4.94114296100058,-16.48582489687547,9.333572674828474,-8.579982317991089,5.6574198122156325,-10.51374646453033,1.485477444975622,-1.4123564017525894,-0.6169681201767112,5.988475426792547,4.696351125263709,0,0,0,0,0,0,0,0,0,0,0,0,0,0,0,0,
194,-12.423775259301749,-0.4321918471017909,-21.503557194467035,-0.2839951245940284,-12.552759996612195,5.814478932257202,-18.83933347982439,1.0857869581000585,-10.166477676276994,3.9614046908486493,-16.642774419729612,-6.133063944034962,-2.2520037509315642,-1.8983227721193323,5.384747197096111,3.2546642607140672,0,0,0,0,0,0,0,0,0,0,0,0,0,0,0,0,
195,-5.846435537061666,9.238846908603875,-13.508013978033318,8.32385131334766,-7.852914379936919,8.375381964431568,-12.471709255847884,-0.3506230775592769,-6.5795198082021225,2.6797219772112832,-14.4390858524417,-6.807598281231346,0.7306984870642448,-1.9114510560164923,9.790959584954013,7.465553536198066,0,0,0,0,0,0,0,0,0,0,0,0,0,0,0,0,
196,4.846347268405708,16.19918144725682,-2.419743831758737,9.383168141824356,1.5059086383108848,9.999299224297332,-5.6901433143355575,1.6053143354160966,-2.9990286931087553,2.2623545893371206,-10.152116214914573,0.10559113861720348,0.6685866862867602,-1.7024741568943957,11.102622180770759,11.151408849568023,0,0,0,0,0,0,0,0,0,0,0,0,0,0,0,0,
197,9.86366917751775,19.2744660604003,3.1921300649103443,8.612241058718496,6.7734010823140665,10.946988462986582,-4.391225283313233,-4.153338952346871,-0.7624417030985597,0.6665039439197038,-15.195206148435108,5.033163657979525,-2.7927539128852814,-4.25944202402912,9.367321266745517,17.855451242481518,0,0,0,0,0,0,0,0,0,0,0,0,0,0,0,0,
198,7.8882695278081485,18.520775176699672,-2.2212077292521855,12.65456905720589,5.255806478701942,12.290908635534493,-8.987289017936561,-5.05898664876851,1.1729492853227157,1.243041139224644,-17.565683573551382,7.477416717573469,-4.27964010169481,-4.605058256695589,-3.710926810128914,14.580830867458605,0,0,0,0,0,0,0,0,0,0,0,0,0,0,0,0,
199,7.310317379936308,16.764901395656054,-5.477471819059161,11.588006387557115,3.310513242401072,14.18892443184913,-6.523573376234708,6.272938405541879,1.6672226726707748,4.70984051818251,-11.601161762820709,3.086598390704971,-5.29219775024054,-3.370530096540328,-13.42737516068265,-2.2385933702592418,0,0,0,0,0,0,0,0,0,0,0,0,0,0,0,0,
200,4.942666152141712,16.072360845067365,-4.148443326369005,13.56167698308046,2.477302413442473,14.68164418128346,-1.8466519132823862,16.662705800780913,2.638219831481287,5.571083846680928,-2.401434583025953,0.8695467419790361,-2.1632311005011644,-3.103515864088216,-7.512982856137633,-2.351305613052034,0,0,0,0,0,0,0,0,0,0,0,0,0,0,0,0,
201,4.430382267604983,17.37358458417829,-3.0962506901150704,21.8426300163145,3.3049924729596682,16.41321405801662,-0.9243200797144624,19.28800544915393,2.641665858587899,3.9871609107142802,0.7986965937129966,5.2275438816956665,0.5535549601682135,-3.0281045439530843,-5.803030447527469,2.129088920614322,0,0,0,0,0,0,0,0,0,0,0,0,0,0,0,0,
202,3.095744537975108,14.185983156224665,-4.3652533588007,14.289716743429281,0.5858120183163322,13.826596787028521,1.1832606993945802,14.167333488958782,-0.48095674306445346,1.9229303303644087,1.1283541143187819,-1.714069825861685,-2.6121555554687816,-6.420720813241957,-1.2427623319465795,-7.814439407494845,0,0,0,0,0,0,0,0,0,0,0,0,0,0,0,0,
203,-1.101372114691003,8.367470135838815,-7.005030693668438,7.712048073501563,-5.039706209916368,10.154478851965969,-2.050440292868686,16.525075183823184,-3.2103613394912145,1.4887387537479384,4.9860785926801015,-1.0496251199432152,-1.355274736030708,-5.280816254954857,-3.227363752180409,5.755795848346896,0,0,0,0,0,0,0,0,0,0,0,0,0,0,0,0,
204,-2.7279037288348746,6.813500810573771,-10.873865746387793,13.726163066114864,-9.252550473132601,9.963876215152844,-10.994730932429142,22.0473011043171,-3.4714490013473522,6.640552485049241,2.7816308179802007,20.347659353432363,1.1224522607496112,4.767220627195641,-18.182144326023327,28.5201383646187,0,0,0,0,0,0,0,0,0,0,0,0,0,0,0,0,
205,-2.049309245026997,7.297219731364869,-13.6801792876917,13.212849009758045,-9.353306713122834,8.43846847490288,-10.480078057133465,18.31002784966391,-2.1185181619954676,8.594382270195922,-4.016370844036189,20.43607729042205,-0.36350257402028774,5.200968079684628,-6.114222420533395,18.690871805176307,0,0,0,0,0,0,0,0,0,0,0,0,0,0,0,0,
206,-0.36320084637716654,7.39784206424139,-11.580621035407969,16.59268998540711,-6.60209384131039,9.608614283944497,-6.849777361450158,20.04277783838929,-2.125954797959068,5.411225985558858,-6.265930109132384,10.018788742986672,0.8736887215102627,-2.2299474400755486,13.190270274270517,6.887326416823708,0,0,0,0,0,0,0,0,0,0,0,0,0,0,0,0,
207,8.495965105388567,16.534735090584675,-3.297235646956424,30.251962426796524,-0.5703939658251076,19.243704857520687,-5.948402936080008,22.67421115153989,-2.2856654156135363,7.952300683450886,-13.822210002069397,19.445383279805995,-3.8094939425602234,-4.0257190682874295,0.1444668454378757,2.2915342585868466,0,0,0,0,0,0,0,0,0,0,0,0,0,0,0,0,
208,11.916083926560981,21.108457565165306,-1.5998943009482218,25.460535317254042,1.4539549651212518,20.752721119287777,-8.10848747945545,12.894241963614501,-2.8938140719957914,12.062452331416779,-14.762508521167277,19.18169471263805,-8.484001418066853,-3.9031693380131713,-10.818455410970898,-8.701181352740765,0,0,0,0,0,0,0,0,0,0,0,0,0,0,0,0,
209,3.359821265646474,9.88346292884718,-9.370076277036802,10.172758027626948,-5.418211996403876,8.954084914379354,-13.700813091390359,5.346908138828795,-3.8926908223527477,6.8537724288637065,-1.00428612012972,6.114789964843823,-3.5768700485690488,-4.912467541885576,1.9003230944173737,-1.335725952197727,0,0,0,0,0,0,0,0,0,0,0,0,0,0,0,0,
210,-2.0688961448796803,1.617724702903942,-13.437319084307887,9.41390008367322,-10.83680359143694,1.1242072516251227,-15.641930253448677,3.9771579611761894,-7.167682946283605,2.230024033084348,4.129078398914771,8.911344321248706,-1.0839608567143841,-1.1683916313737654,11.45714194029113,10.876905556074574,0,0,0,0,0,0,0,0,0,0,0,0,0,0,0,0,
211,1.2054267115965729,4.4800016215513665,-9.271377269535321,6.799539740375714,-7.460645215013116,1.684598234335411,-9.297458575944141,3.1859674708601062,-8.234432761282235,3.2631404700046858,3.9708305662079084,9.586180339073834,-1.526599486890973,2.3824340961838857,1.5210324971663738,4.843233274193141,0,0,0,0,0,0,0,0,0,0,0,0,0,0,0,0,
212,4.670728391856855,6.8701677011371345,-6.0448724722707965,-5.029368214769079,-4.178822682484622,0.9727781445435966,-2.8114578389147624,-4.433403782115668,-6.17028978275745,3.8438906573723273,11.589989545754399,-0.19791419236476315,3.26741487117409,1.5845813880985133,-2.13004442459615,1.9731828316425846,0,0,0,0,0,0,0,0,0,0,0,0,0,0,0,0,
213,4.432047237007552,5.805248536423974,-6.933827128137267,-2.7070375918220293,-4.435404446682668,-0.20794213668557404,-5.13487807186101,-7.887264865268776,-3.878654504892509,2.0612796121135233,10.473472023839065,1.4647996490895423,3.945950730108976,1.3163945474791916,7.082702873412401,10.381910333830634,0,0,0,0,0,0,0,0,0,0,0,0,0,0,0,0,
214,0.9396393367867546,3.425912616095161,-6.669693897473735,2.9198522016397703,-5.301866433664756,-0.4152929608067808,-13.576463093821587,0.8035525368886738,-5.3758257596373085,2.8733757779756885,5.808363818477922,12.208711929767574,2.9498916847147925,4.941467603064105,10.25199480582289,14.594314482932091,0,0,0,0,0,0,0,0,0,0,0,0,0,0,0,0,
215,-0.014229337330533554,2.306039041564901,-4.643111644180095,0.48264399605533015,-6.56426804940304,0.5756545753570634,-16.953250636016648,3.717276963563293,-7.74015563738255,2.445736502320571,3.5893221790444656,8.096144832793087,1.6186994191851127,1.8475129481624961,10.285851207622073,7.499143018864376,0,0,0,0,0,0,0,0,0,0,0,0,0,0,0,0,
216,4.946915917093008,4.5279637692369334,-4.082738570593236,5.784662460004597,-5.751257799377612,5.782964504944189,-13.001128890275822,7.968925935457506,-10.117513000390204,3.621111666627165,-2.722750298219477,2.72474044901098,-4.6822572948822625,-2.095909929709876,6.273485971979458,-2.07435330340828,0,0,0,0,0,0,0,0,0,0,0,0,0,0,0,0,
217,2.7102502893095846,1.7777489305662755,-7.66267892073499,4.887413095047222,-6.734369947918594,5.373888966314141,-13.892734095468612,9.346328564093838,-10.914090141277285,7.840373536452873,-2.862066670224948,8.435444231743418,-6.188282574666321,3.5144754555251687,-5.703657819071129,4.507656577012762,0,0,0,0,0,0,0,0,0,0,0,0,0,0,0,0,
218,-1.3843511532279251,0.36447740262994444,-5.274742174002228,0.7299321272666219,-4.328820158684437,2.7360464397914797,-13.159671968360115,0.3550018016012615,-7.977452153292113,7.182360800866448,8.749728593901281,9.733681394905199,1.0719220503165747,7.0040185077701445,-10.079472089844401,14.862229756301474,0,0,0,0,0,0,0,0,0,0,0,0,0,0,0,0,
219,4.114256051156417,3.2663383557957957,2.276457750136416,4.885696056659697,2.905404363385827,5.3079642942803105,-5.334001146117117,2.3865483022452025,-2.1519156286886414,3.3789212740792562,14.802328120067202,5.645760169039469,5.016573716705356,3.146769777593868,-0.3029941900201163,9.209618314355057,0,0,0,0,0,0,0,0,0,0,0,0,0,0,0,0,
220,12.787611991533453,5.577556605164631,7.10879242206633,4.467025117101599,7.19894607970393,7.281919475491023,1.556189737214055,10.901606761724352,0.9529843650964231,4.5248479470955605,10.53784228157498,3.8021457253842126,1.5150931026347596,2.100023043284917,1.6025860992787084,1.7430920966405434,0,0,0,0,0,0,0,0,0,0,0,0,0,0,0,0,
221,14.706882413935261,8.056574132152122,8.556762831964463,3.614037448577747,6.421345652812818,6.058398018646571,3.359935098992935,4.568214104052828,1.4786541843893772,5.153206769477039,8.769701002804556,-0.5724659787910831,-4.852677144322254,1.49883357923364,-10.851871533625086,-1.6999139386838138,0,0,0,0,0,0,0,0,0,0,0,0,0,0,0,0,
222,11.534721753772729,6.137105354709362,5.1050185625220905,6.483665520362351,4.023521903456583,3.221245504535233,-0.9720148004239206,-13.726928884644408,1.963242686073066,0.10611976870715623,10.126669418463827,-0.8937190797802614,-3.1630505671795,0.49493557009800426,-2.194057345135789,1.9383647902410317,0,0,0,0,0,0,0,0,0,0,0,0,0,0,0,0,
223,7.312649392129529,0.4427893866487267,-1.656794120764772,2.2175839055311712,1.4233518851140587,-0.21531779382175387,-8.53871855793443,-18.57316058275879,2.611651984734813,-6.72714453721494,8.845204671369764,3.570015783070005,5.084929840453796,1.114560111074482,14.953102875355185,13.115075898786843,0,0,0,0,0,0,0,0,0,0,0,0,0,0,0,0,
224,7.568446719189936,3.2251384006363253,-3.134191164085749,-1.9876907771114247,3.7060624841445815,3.3791158377488983,-8.644192468423796,0.10756129522214053,1.5644442889672519,-5.834175735251982,2.6215664155201353,4.754501343902447,5.340779495691251,2.791871321011712,8.533317296495987,13.503902859214975,0,0,0,0,0,0,0,0,0,0,0,0,0,0,0,0,
225,8.527245795406031,5.975412244418081,-3.0895377791831606,-0.1408042399024083,6.347551758355195,5.952627696694478,-6.773827345026319,5.565286618074239,1.144614340087486,2.4612007876860886,-3.6391496930745006,2.9381883981906327,-0.33157375562314684,5.585767633247315,-0.984502373297417,6.384384445789262,0,0,0,0,0,0,0,0,0,0,0,0,0,0,0,0,
226,10.550439394367018,7.062421560300507,0.06534442860024114,8.290484644375852,6.619779170154175,4.29323968086733,-3.3983532840653794,0.8423421231451371,2.867916366747977,3.5687265356825435,7.266027731282136,-0.8267040575221927,0.8520270145083089,6.073867025064899,3.7869998009957087,10.077552701044993,0,0,0,0,0,0,0,0,0,0,0,0,0,0,0,0,
227,15.433105902904657,11.170347563369134,6.959321650479218,14.07078255022217,6.341981560611686,6.273473174520234,1.893579617756501,8.042256755535234,2.467046940107309,0.2480307682309899,18.780394412275797,-4.5667622601354765,2.6335879052936093,4.421436739233499,4.054934409159493,8.001834593902082,0,0,0,0,0,0,0,0,0,0,0,0,0,0,0,0,
228,17.912656628889344,11.600428341493817,9.463409345594997,8.622353494861002,7.41703877317012,9.230462355601546,1.5241204706841387,11.58038729577476,1.8982132665138636,3.651593934163728,10.021904594510431,-6.519729328255266,-1.6853171731917485,3.4059437356035858,-5.709622577637525,-3.095790696612493,0,0,0,0,0,0,0,0,0,0,0,0,0,0,0,0,
229,6.118518989095513,-0.5518362179173835,0.27361216150747225,-3.955590396530784,2.9312540166931242,3.518275427045925,-3.366177872265414,5.732814210761447,1.8014814600505247,6.090106224170441,8.02985975985834,-1.091745274755766,0.14661162622094537,7.438128680165008,0.9482799099543513,12.796114550994805,0,0,0,0,0,0,0,0,0,0,0,0,0,0,0,0,
230,-0.2538760766581909,-5.988547143121325,-2.1224952135937727,-5.109613367721799,0.8190314180280271,1.2799636513309345,1.9636438674158043,2.2462737556380166,1.71371702703442,3.5699987633925474,14.868390697900637,3.672248669948104,3.9421780320659536,10.473123466800828,8.885915446160723,21.14265318495265,0,0,0,0,0,0,0,0,0,0,0,0,0,0,0,0,
231,4.470670189868735,-1.3336277786010535,2.952748634839448,-2.23448426028963,3.87334954058929,3.455871517601442,4.06944813796331,-1.8458243656848259,1.4259950328044084,3.312028313393924,15.30856950997007,2.2662209658899712,2.9425865795873563,8.299205043141512,4.141056526572186,3.025670448591775,0,0,0,0,0,0,0,0,0,0,0,0,0,0,0,0,
232,4.067848991811758,-2.400794979094737,2.7708753218413698,-8.225640251919721,3.933238008099167,-0.500884190700134,-1.493340804941207,-8.149081655278497,0.8550311076832742,1.6759906543511534,13.25415754085573,2.937316155559344,1.978130635614221,7.261764540458401,4.179363030188583,9.076618395741448,0,0,0,0,0,0,0,0,0,0,0,0,0,0,0,0,
233,4.497782291324093,-4.184844940310384,5.311398861495153,-10.06714899094403,1.729020779437782,-4.426210379505839,1.6694469227564106,-9.328849462820997,-0.5011416643737903,-0.8330279864996157,8.359685127931868,1.9859729673994053,0.6913408638041716,5.3690243587574,0.36731205312007376,6.744669245359113,0,0,0,0,0,0,0,0,0,0,0,0,0,0,0,0,
234,-0.053322896616172955,-8.089691030846545,2.6447729478326707,-6.728436484612914,-3.4457355002956334,-6.366529578992065,-1.0721602998670932,-4.99125683946675,-2.607846035220149,-0.4992060879490765,1.414799466895559,1.0169379788596729,-0.3087490535745445,4.782147076243234,0.27637255174226283,-5.858990346048582,0,0,0,0,0,0,0,0,0,0,0,0,0,0,0,0,
235,-9.980366661632402,-15.004436992142054,-4.803931085685903,-6.432755961944679,-8.283807937137404,-8.428979950442397,-9.934097765364442,-1.8029123563794869,-5.888518674679361,4.063452910261304,5.32496098269084,7.61076173337689,3.595319504081999,13.407847655317383,11.329141331914961,9.593141907169642,0,0,0,0,0,0,0,0,0,0,0,0,0,0,0,0,
236,-14.181255726538481,-18.460960355167742,-6.068506040186733,-10.8485229227703,-12.015056243608214,-11.112969344891596,-8.135092145074665,-1.2424168025065256,-6.308549005095486,6.115494940614099,13.11480706541957,9.910689394953181,4.8581900366571205,17.250304977197004,9.209953950688508,16.844882552368787,0,0,0,0,0,0,0,0,0,0,0,0,0,0,0,0,
237,-17.94654029996434,-18.78062027806172,-5.317069531545641,-11.798303773441276,-13.799541182361523,-13.57187993606648,-2.135571860201111,2.8208374823145306,-8.009445218873438,2.5767047022868326,12.248118077516196,10.381713787140242,2.448064010708954,13.912020971836611,9.069850467383496,12.247843471215397,0,0,0,0,0,0,0,0,0,0,0,0,0,0,0,0,
238,-13.824576175298418,-13.349572830333798,1.7252336364209526,-4.1275877848111975,-6.187502061499771,-8.843155715535957,4.201696376626629,5.709246148829237,-6.375551969192628,0.8202341788900469,14.348736590692354,9.04636252303024,2.8643840657682063,10.420394244766342,12.916033815624516,9.148725292274804,0,0,0,0,0,0,0,0,0,0,0,0,0,0,0,0,
239,-6.535127175269594,-10.76647667177457,5.763396113330316,-3.8203913180085465,-1.2664238855398935,-3.6720901545617153,3.4917855284715955,-4.258843550273738,-0.8918742877084682,4.098237033593513,20.60960461012422,6.815810250168745,5.3257625867324805,8.126113325973456,5.633900067395903,3.8760419472312924,0,0,0,0,0,0,0,0,0,0,0,0,0,0,0,0,
240,-5.596604107969512,-9.227261261977958,3.6229039684332207,-3.5398602818913645,-2.2380487421560247,-2.409500079716011,-0.06846655606990737,-6.3350742305387655,1.732438883895071,5.55532520311197,14.840832640120336,7.764622472496747,3.3137758614018864,6.9065282685961975,-4.104331469508246,1.5480551068377322,0,0,0,0,0,0,0,0,0,0,0,0,0,0,0,0,
241,-5.878284521041792,-6.177136258676825,3.2397547757896916,1.362385197382082,-2.3412166050753456,-3.374935921952485,1.163169298027256,3.2252180982708865,-0.5678757003125341,6.571196497172576,7.405295323842713,8.502114270799751,1.0486071300007431,7.362986129649201,-11.61653882474462,-6.161396826573042,0,0,0,0,0,0,0,0,0,0,0,0,0,0,0,0,
242,-9.394984536375716,-10.95057689805904,-0.6325794794568083,-3.102087566229443,-5.53789216771149,-8.830459478679131,-2.0485590252128105,-2.1139200898631003,-3.2804780980329653,4.463665647473601,7.854366323639112,4.379608816685412,1.6975798484113547,5.929495723662388,-6.129109570639377,-5.942236686071137,0,0,0,0,0,0,0,0,0,0,0,0,0,0,0,0,
243,-4.764853306438965,-7.345519616959422,2.9590471438756367,-1.2563573614305454,-1.5971656509589707,-7.272147461775958,1.3238472541721933,-5.249929916849808,-2.232846366050391,-0.16659939358971343,13.825905240627739,1.117178417800421,2.7420826281197814,1.8617981183242072,2.4860668982564254,2.8361347831740424,0,0,0,0,0,0,0,0,0,0,0,0,0,0,0,0,
244,-2.3115282302822777,-4.16693114848951,5.375622033516194,1.0130863834367858,0.8612602059813952,-4.622915620671577,5.791896928511889,2.558724238992724,0.33674518711678836,-1.6664204017853494,15.465746318504262,4.854642755505582,1.0515615437617774,-0.5629863210708077,-1.6599477992814808,-0.899986262499457,0,0,0,0,0,0,0,0,0,0,0,0,0,0,0,0,
245,-5.509327379871763,-7.901151186848466,4.107272296612322,0.2004853228801693,-0.03320966623803656,-4.6565369748567065,5.642184168715872,4.332362804997516,0.6593775449409911,2.708692505332495,8.36898816108113,9.214885234183551,-2.221897086819908,3.559606329189741,1.958851378390861,-4.996643208081895,0,0,0,0,0,0,0,0,0,0,0,0,0,0,0,0,
246,-2.487648085356568,-5.838523708510337,8.587811936370358,0.41593078405956874,3.198889276040873,-4.581627454616708,8.414057422775457,-1.4131730915601821,3.358266787925409,4.902601139224441,11.015095405865459,1.095146126769258,0.7396946706693548,5.935225440769482,14.136541509937075,0.3561037944478258,0,0,0,0,0,0,0,0,0,0,0,0,0,0,0,0,
247,-0.6166889990092699,-4.726102222215914,10.279996302226735,-5.626720638590186,3.430626972770071,-7.400794344905421,12.23331692723022,-3.0472299754134724,5.775133411953682,-2.0707731384924983,17.764307898577677,-7.33905514622662,8.018697379476173,0.7610784434712343,8.18509949277631,2.2529294460601186,0,0,0,0,0,0,0,0,0,0,0,0,0,0,0,0,
248,-2.0633349499453573,-7.93785588243027,9.040500559503101,-6.478928180206893,1.4946098471891816,-8.272449955879807,9.816794659852235,-0.6207880967775452,3.651238333614714,-4.943590432328918,9.444518790201727,-5.04942218864867,6.098818866209534,0.43517717603636186,-9.05829977075804,1.7875844905831997,0,0,0,0,0,0,0,0,0,0,0,0,0,0,0,0,
249,-4.851855677970903,-9.957947179000413,6.710756264243031,-5.019885191607443,-1.0012048476456812,-8.222205157345044,-0.06332224558444466,-1.6228134664989113,1.4579624504316513,-3.093689993450049,-0.6911323825889468,-10.021846884113288,0.8802961611738382,3.036848125140189,-4.575190744347353,1.7229128452378966,0,0,0,0,0,0,0,0,0,0,0,0,0,0,0,0,
250,-9.243678125562539,-11.905427131611674,1.9901104168587267,-9.220181355707169,-4.9733811015007205,-11.824437996553769,-4.053141673698448,-2.0320440025124995,0.5057308118808379,-7.240928618690603,-6.385974683070785,-14.028932509026191,-0.06190271065083408,-0.2937197993020817,7.721936605195857,0.5496977409522081,0,0,0,0,0,0,0,0,0,0,0,0,0,0,0,0,
251,-4.046437538012313,-8.49230118052158,4.353735732279269,-4.3510873246433235,0.005895222826289626,-7.669063582386386,4.016777996202819,-1.958537924567274,-0.15142157846344162,-6.647846481538892,-2.617283777289174,-3.4447964973081895,-1.507882365449106,1.4439398491499276,5.758588550294014,7.352206679923555,0,0,0,0,0,0,0,0,0,0,0,0,0,0,0,0,
252,-2.8044751210513255,-7.249914162286181,3.5061017424233185,-3.5830280500462877,0.9930380044989775,-3.1626016257260616,3.7439062400107943,-7.201252018706231,0.5717818390200051,-0.37595239589582263,12.496086622786834,-1.577066891637699,0.05006530058398084,5.287786958812205,-4.12250672861866,8.013851734605112,0,0,0,0,0,0,0,0,0,0,0,0,0,0,0,0,
253,-5.735405410726294,-7.9747173388335355,0.747613201039762,-6.299708197182834,-3.653277590830484,-5.290561365359004,-0.7185240925115934,0.24826763072566038,1.308443665569584,0.0171709808277285,11.414178216451432,-5.99538509266624,1.3843998686904229,2.773245001089947,-15.981260772088604,0.8461316238317487,0,0,0,0,0,0,0,0,0,0,0,0,0,0,0,0,
254,-6.262685134995429,-9.617632416382575,0.1857589411334022,-1.9866096996965492,-4.206609319529905,-7.673012140354118,2.3174259774257813,10.188591608095209,0.9773895877233514,-1.2300455603828908,4.284269028241809,-1.4057059923964061,1.1998782523449876,3.5126943723818442,-14.136187963794939,-1.8188148432602347,0,0,0,0,0,0,0,0,0,0,0,0,0,0,0,0,
255,-10.150487391286465,-12.502100519687435,-2.2004148043432834,-2.650725013007975,-3.580851350417297,-7.221964617049007,6.4487755418938395,-0.6561839358416284,3.956231182219966,-0.9854075671967735,9.419163426942319,-3.6408505637732276,3.1469059826758325,4.268975785346143,-10.30637285533615,-9.036104732266082,0,0,0,0,0,0,0,0,0,0,0,0,0,0,0,0,
256,-12.747977633383753,-12.77414823629644,-2.288520789627846,-8.505512307784565,-3.6546817699092884,-7.3776054184700595,4.16422748597356,-13.559504577246937,5.118165864642947,-0.29435658065720816,9.179770547014911,-6.977624462848638,3.905273763077716,2.7813678915144635,-11.308371746493393,-8.411141346972386,0,0,0,0,0,0,0,0,0,0,0,0,0,0,0,0,
257,-9.948303196992107,-11.693124728718512,0.8899551913626524,-8.632917010975877,-3.1283680892697205,-8.80003916216884,3.5767208404525554,-11.111807275574407,2.5553974891468556,-2.395140842018364,5.865664136648292,-4.745143411193354,4.016035895604972,2.582642307599272,2.240100001066466,-0.711949183180959,0,0,0,0,0,0,0,0,0,0,0,0,0,0,0,0,
258,-5.496408022955748,-8.473437052932724,4.340849991769936,-2.1310530254355697,-2.5573402689121636,-8.348204557450906,8.168775478830433,-4.410281659371563,0.6335309376335516,-1.963251591693151,8.462106243707538,-1.4469132795975952,6.55777713987969,4.647499042552255,10.754133784869381,-3.5834565329884214,0,0,0,0,0,0,0,0,0,0,0,0,0,0,0,0,
259,-9.601165904275987,-10.136226891119719,0.9635000146747075,-1.8514197183457242,-5.241856409945996,-8.148412639643183,4.4005050451612675,-0.6341090083826089,-0.6567808487578759,1.7070062417339926,4.358727589170925,2.7129243033226658,5.049027072014695,6.40242664210264,1.5655597065975684,-2.5132978435495907,0,0,0,0,0,0,0,0,0,0,0,0,0,0,0,0,
260,-22.324700453086308,-21.437147074444326,-5.466163595167373,-13.48278714526181,-7.822157249648683,-10.302863199609178,-5.05249478589684,1.6389930940233128,-2.67843815955257,2.116316981768989,5.472864822354275,2.8318094187430205,3.0754280626758117,6.434266651387944,1.2949604166799702,-1.3371889887653108,0,0,0,0,0,0,0,0,0,0,0,0,0,0,0,0,
261,-19.428903251116537,-19.180070351112448,2.5415174350796548,-11.338465056502073,-1.2392498654067197,-7.851923620951794,-1.273431484896733,0.282249748393653,1.7385928183791606,1.4435666101414597,13.475968089955153,6.059903194821729,3.4251006414333673,6.483865154401258,3.386385405287207,-10.637015693399892,0,0,0,0,0,0,0,0,0,0,0,0,0,0,0,0,
262,-10.677418864690253,-8.714697475597134,10.624937450308153,0.8549088861239653,3.698346611669507,-3.6702596049337473,8.463727357278714,-0.113652124618568,4.493018244475948,4.245439286796575,10.239429444535702,20.169068726341905,0.20423188820316795,8.244443590398397,7.724370700500295,-9.011506491125573,0,0,0,0,0,0,0,0,0,0,0,0,0,0,0,0,
263,-16.462944825731682,-12.224198947734209,5.697187551365332,0.27240737619976585,0.6294572673625964,-5.4359225996551,11.642257085127213,8.936465043815815,3.55260261017996,5.814695016440787,11.695993498564032,20.790443311963756,-3.981800867104006,7.872143026809425,15.93450308344773,-0.3517507128769215,0,0,0,0,0,0,0,0,0,0,0,0,0,0,0,0,
264,-15.562553778366748,-13.373910696699056,8.41533770629718,-2.6848978328767856,3.2564590881902262,-6.6213714196612585,15.261409457631075,3.384634596757664,6.3507938580747805,6.510295818561659,29.499125025410244,14.656468788623712,3.37605645303924,6.8851649640534305,-2.312333669584117,-11.5768795404405,0,0,0,0,0,0,0,0,0,0,0,0,0,0,0,0,
265,-9.072850747351282,-11.788944555422432,13.194435152045386,-5.8044671228130795,5.794559193140628,-5.055177823940468,14.556638673068605,-14.601286380751404,10.08203532409781,4.320309817612575,29.283360790131372,17.810044482307468,12.85125614835292,3.981625320170796,-20.897917569904926,-19.257288955240224,0,0,0,0,0,0,0,0,0,0,0,0,0,0,0,0,
266,-8.869626453604866,-12.225726936528702,9.617469711752989,-4.016648850530672,2.081983500812072,-4.795595132367538,12.507290544160924,-0.43895156732433804,9.15395349447196,2.8370753930926504,11.555152494137854,12.784138038210077,13.422370927555342,3.0212328393906525,-7.168858531081131,-7.475459710165082,0,0,0,0,0,0,0,0,0,0,0,0,0,0,0,0,
267,-12.842113818343137,-11.586826454560878,7.091472022263744,-0.8386989243875149,0.2750629482924012,-8.27837521100713,15.986583710339374,10.277873746280804,9.052248237284584,3.187250755090516,14.275392029645854,-1.4807349798142635,12.85345103604626,4.451634476850192,1.4102035094729568,-5.433973561072847,0,0,0,0,0,0,0,0,0,0,0,0,0,0,0,0,
268,-20.91825911522369,-16.45450822962158,6.909973589020154,-3.591872119585801,2.40939826183552,-9.146559052090026,13.364620886570762,-9.172787537452336,10.764576140118514,0.034579097490377464,27.618345234317232,-1.1446914960350294,12.519054130490595,2.2567304755614206,0.8133733929736131,-9.087593010243575,0,0,0,0,0,0,0,0,0,0,0,0,0,0,0,0,
269,-23.083364358608648,-19.97493890507593,4.62056527841213,-3.63196163184638,-0.09855711410931178,-7.288641494569816,6.525546866510339,-11.091637403431918,9.372930706860394,-1.3595030450817056,21.100191485661654,9.439051602420715,8.18076498211483,1.5783369534068363,1.5201518868770911,-7.429152294102865,0,0,0,0,0,0,0,0,0,0,0,0,0,0,0,0,
270,-17.237133294958554,-16.929486718219096,3.6614627434693006,-3.7601006898338625,-3.7576243929625406,-6.715454580929631,10.605891582635536,1.0968803497902968,5.230714354586098,2.4016345232071608,12.557218831560093,6.690063948177887,5.43376617509923,4.385284835239915,-4.259457426422369,-13.509447724585147,0,0,0,0,0,0,0,0,0,0,0,0,0,0,0,0,
271,-16.245216326554,-14.249476036423758,5.339651676116091,-1.0920128752297558,-1.8210060583399752,-4.659376489704613,13.830830923111634,1.9207863370923945,4.775247634334711,1.888293886950521,16.6052704474208,-6.3014668440099655,4.408659700238104,3.201678080579228,-3.544582387242336,-18.1639314129989,0,0,0,0,0,0,0,0,0,0,0,0,0,0,0,0,
272,-8.22932310654484,-5.207063025712259,11.819998642648969,7.949556036266046,3.2331824186161526,0.6302381490727527,13.610816532264167,5.412932682726918,8.333740446632916,0.6381635716288088,14.274050101824159,-8.787833400636266,3.399451112990789,3.07910231611843,1.7022384834917048,-12.368109665510982,0,0,0,0,0,0,0,0,0,0,0,0,0,0,0,0,
273,-0.849249566858731,-0.7368218846587098,14.766302052066806,8.771142070506173,3.460367365880032,1.9358012673303477,14.378271870209772,6.163487636382499,10.399018479713675,3.3222414035196124,8.763647158722407,-4.415680088312968,3.118483463355801,4.507842967705486,0.2160071356363602,-9.618637548864367,0,0,0,0,0,0,0,0,0,0,0,0,0,0,0,0,
274,-0.07487633095601609,0.9969379902274369,16.544282080273035,12.773419343957727,7.083705129633216,5.917872797458088,16.06460771919575,9.105989704519942,9.414803380441143,4.556390235406383,8.481623687801616,-0.8225083289878796,0.8111176269007814,2.645200905224783,-0.5292904765724629,-8.346703059069899,0,0,0,0,0,0,0,0,0,0,0,0,0,0,0,0,
275,4.489939128358216,7.4684812690450855,19.227095299255843,20.32798790112949,11.634970466208443,10.494628533474156,17.09668251245826,18.494824389463,8.842944103617782,6.1877186269810664,3.1952319208708957,6.110692111206603,-1.199150464388822,3.2767088640360242,3.965581371606447,-1.526447982529124,0,0,0,0,0,0,0,0,0,0,0,0,0,0,0,0,
276,4.533608926511036,4.815608243603982,15.022934831578034,16.883553511203992,8.954274867610344,7.599924644615783,15.590074455552532,15.060216042727163,9.82349557941015,6.725016150912964,3.5348808723209686,7.6315499499157085,1.5950356733670077,5.224212898165362,0.3396524961826799,-2.5113291089190497,0,0,0,0,0,0,0,0,0,0,0,0,0,0,0,0,
277,-2.574099816754476,-3.140003568293821,7.610051968804882,8.287895260374821,5.4529238455392175,4.197881591909159,11.384542387315882,11.331880378110878,8.805431877549466,5.138700865495167,14.004546220311056,0.8968509811576268,6.263538283594883,4.497634137331701,-7.629142588924722,-10.40233607979286,0,0,0,0,0,0,0,0,0,0,0,0,0,0,0,0,
278,-2.5595022962529903,1.4585881776810048,8.031826926387554,9.794960312473567,8.385264403943,6.807212585663979,11.52985981062524,13.23060726532113,5.9108682077699655,5.156357403007121,9.383831713414253,-1.902906282479222,3.9408068186028515,3.8438755356156378,-3.54402457740386,-8.09960703921682,0,0,0,0,0,0,0,0,0,0,0,0,0,0,0,0,
279,-1.3028508048963001,3.368488158824705,7.601845702747071,12.81356789189612,8.632915195051892,6.183943944223527,11.51753925605471,4.022960107797386,1.9505164174640441,6.125740858507513,0.0842403748543461,2.6448031715568447,-0.7556684761961776,6.14640469365429,-2.1307967090584583,-3.135539600339122,0,0,0,0,0,0,0,0,0,0,0,0,0,0,0,0,
280,-2.1255132646936126,-2.5617700968511095,4.058251516098547,8.391141805868386,5.257755807970685,2.021522996721032,8.40675166089152,0.5287138464318701,0.6675816401653378,4.572822997872848,4.0749990265476725,1.6878564740264181,0.5303410295850597,5.962819290176554,-10.792729202049003,-3.586956571991429,0,0,0,0,0,0,0,0,0,0,0,0,0,0,0,0,
281,-1.1072002800930747,-0.04005939285109861,5.136474380062211,5.617989160115091,6.120015297026804,0.4481742287923467,8.059033393075843,2.0708315256020065,1.4463245202066304,0.9320057244776478,8.34249096266737,-0.7784940442445105,3.904102425051761,2.227098488922593,-4.087005681118782,-1.4199638589140928,0,0,0,0,0,0,0,0,0,0,0,0,0,0,0,0,
282,0.7530165232112935,4.259813905655726,8.302502731455697,4.081897036358924,9.530719995935556,-0.6226554233713912,8.605366122239467,3.285895557123034,4.240533648247762,-1.638721820028593,10.411120457535645,6.068981528447836,4.411986748407756,1.1210243419092336,8.258361880697478,4.476659413231417,0,0,0,0,0,0,0,0,0,0,0,0,0,0,0,0,
283,-0.23964902225318951,-2.772972428447744,8.232303906617261,-2.59448563320651,9.149898419662449,-4.106803491142848,6.397836912003875,3.0620039193088218,5.326718782684779,0.994367855492186,11.366264025619941,8.158871117995915,6.599293650577366,4.2928272995421395,6.484183480033543,3.8405226619513524,0,0,0,0,0,0,0,0,0,0,0,0,0,0,0,0,
284,-2.3133937479195907,-7.554678228489607,5.574609550386938,-8.951791267341903,6.103265223853668,-5.472203487784142,4.159421445858911,-11.710747763777121,3.493393125984653,-0.3580024538314319,2.9123286826550157,-7.131603443130857,7.145213193597115,0.05118467438052221,4.473774928522623,-5.438361314003616,0,0,0,0,0,0,0,0,0,0,0,0,0,0,0,0,
285,-1.374168912546324,-2.7645204488937907,4.886678174098549,-11.20168096136345,5.228718751672957,-4.636910014380419,2.870937151146876,-16.842187246470957,1.5014621087960478,-3.781314937524641,2.131437702837303,-12.308448917718508,3.8852853604916717,-6.2003560344469975,2.22234325223549,-10.817581320982901,0,0,0,0,0,0,0,0,0,0,0,0,0,0,0,0,
286,-4.722313487551787,-2.42971338031856,5.051266959404657,-9.228190269526792,5.133623202238965,-6.816117779961473,6.138458099559813,-3.986105625598114,2.50263785901015,-2.177564750625045,10.440756345367234,-5.40882305720659,2.0474407082540083,-3.7712934060735392,-7.642710860437987,-9.999274964327695,0,0,0,0,0,0,0,0,0,0,0,0,0,0,0,0,
287,-9.923239581866923,-6.727078308788492,1.1204507677279025,-4.737000431821812,1.097911953328321,-8.84439608594522,10.563046270325557,-3.580045910135169,1.4541959869662477,-1.3406474733643208,11.554406167632465,-6.003462490135746,6.507117629402096,-0.36299681825045127,-6.578331138470105,-7.880538556754534,0,0,0,0,0,0,0,0,0,0,0,0,0,0,0,0,
288,-7.779102370352433,-7.572315844397565,-3.4724497743274867,-5.8439977543430786,-3.9516760039821577,-8.484757534022336,6.554732676328044,-13.993949058701489,-0.8480439464466087,-3.763929090594992,9.925473292711509,-3.308030426719448,10.27632402155539,0.025551052165333488,3.271104174128862,2.41767325929979,0,0,0,0,0,0,0,0,0,0,0,0,0,0,0,0,
289,-5.884454527963982,-4.949257550224019,-4.658693629087907,-8.999783283263724,-5.296209520023922,-8.151816455540029,3.0048938312265676,-10.854846948352076,-2.6905393728202966,-2.439450633523787,12.76675216317809,5.897611049133133,9.093540441676023,2.8924767988298115,9.661341114316675,8.64314676480787,0,0,0,0,0,0,0,0,0,0,0,0,0,0,0,0,
290,-7.348780124169451,-1.8738897245408452,-3.613253780897054,-5.051059848468938,-6.209046494309732,-7.1488728645714446,4.755291110083732,0.4106766794309493,-3.589088573174628,-0.5735453250680607,11.725493529336337,3.933846364930343,5.538698692481949,2.7627584137947956,10.815283330908233,2.2853026936406735,0,0,0,0,0,0,0,0,0,0,0,0,0,0,0,0,
291,-5.390923833970362,-1.0852941794436788,0.508430627945998,-1.694274437321809,-5.73346326626438,-4.810060627465788,6.526361748504314,3.319004194502753,-3.8677354618444095,-0.9622868298500347,3.578366700457293,-4.19296659354152,2.0339487392020716,-2.06259194896691,4.592926443058772,-5.21221662611979,0,0,0,0,0,0,0,0,0,0,0,0,0,0,0,0,
292,-8.964760722519543,-8.76467661274782,-3.697203354425781,-6.618284564952873,-9.841284904867933,-8.10026545895792,2.7210961095560435,1.4786393364816632,-4.288668890116355,-3.3650620390315744,-6.720914659681947,-6.04347936712273,-1.1791549904292022,-6.059909543541461,-2.263489183091771,-7.243660811566128,0,0,0,0,0,0,0,0,0,0,0,0,0,0,0,0,
293,-16.739055074317804,-16.973817874977797,-12.535274864890013,-11.724949757516214,-16.610206611009446,-13.0447360561556,-0.5466430736497614,-2.404710770206364,-8.050226810463876,-4.669240075303247,-7.553588052539595,8.334360671443626,-1.7951301894755005,1.8746438065250537,5.923961476659256,13.578582488983889,0,0,0,0,0,0,0,0,0,0,0,0,0,0,0,0,
294,-21.008715969855743,-19.63882664027021,-12.920376943372318,-15.045036635597185,-18.535645723789926,-15.09069513743394,2.4971161262323847,-7.590762921767137,-9.131354516541492,-4.686475227131481,6.566189904144494,16.391481759971924,1.6007504611366699,10.750906780444517,22.201841977978642,34.231713019822415,0,0,0,0,0,0,0,0,0,0,0,0,0,0,0,0,
295,-18.018575970497125,-17.28706288851008,-7.440936848509551,-7.679899500189094,-16.77991197269472,-13.778464312547243,2.327851743314284,-3.7647344214902034,-4.726715536382329,-7.899055362898217,9.526875470699345,1.2443755468163076,3.4012872281803936,3.0700332542750743,18.727646831134273,21.235693029170047,0,0,0,0,0,0,0,0,0,0,0,0,0,0,0,0,
296,-11.60387195841163,-11.982201838573644,-2.48239129505059,-0.4772383339825268,-15.105777200950826,-11.536088038289677,1.4496096209932716,2.0830903375101713,-5.604532416997117,-11.358793636095648,-1.7147766105948534,-3.171709917129135,0.3157348232004864,-3.1064406920081566,6.952510033306744,12.045229849200375,0,0,0,0,0,0,0,0,0,0,0,0,0,0,0,0,
297,-7.768742605965556,-7.347415259289377,0.29474496079470214,-6.676815258504334,-12.364280718527311,-10.246742420941601,8.023981669075326,8.309059129366354,-8.792874653172007,-9.357145119250255,5.364087443435643,4.088001597244286,-0.1911139264126973,0.2130934046589985,11.6078456292298,17.38342162628829,0,0,0,0,0,0,0,0,0,0,0,0,0,0,0,0,
298,-15.521390836371737,-13.026838745831412,-8.96501243007529,-13.60655872910499,-16.93818549572306,-13.24170468746702,-2.4062463920735837,3.9475437211985067,-7.121519403120132,-8.486311067019528,9.212399749205602,-0.06980291383146664,-0.95296993906274,-2.3718441747488868,12.526012091299357,12.163739040893326,0,0,0,0,0,0,0,0,0,0,0,0,0,0,0,0,
299,-21.906247986264944,-18.765086194955025,-16.137750733931696,-14.838628279067684,-21.164502606938697,-15.118459698486532,-12.084670962066255,-10.450600704872848,-8.131329059773265,-12.285936858050846,-6.111244498543627,-3.8180519964113557,-5.3834150773152345,-5.5809095077403725,7.521968531612181,9.409028446988902,0,0,0,0,0,0,0,0,0,0,0,0,0,0,0,0,
300,-19.064033350273093,-19.272401972080047,-12.387933798562202,-17.599257962909775,-19.250834904709144,-16.60823488986908,-4.08021427740006,-8.147123397977534,-10.536095411682638,-13.022569344718889,-8.613677490041468,-3.3069428960127,-5.373459461424005,-2.6294207407735115,10.707113910005361,13.138276036857757,0,0,0,0,0,0,0,0,0,0,0,0,0,0,0,0,
301,-15.45633046228901,-18.648020031177314,-9.445108028810843,-15.034688622847945,-16.87993568039759,-16.69989248273972,-1.1138450142791925,0.21191617700684162,-9.260097705631296,-11.776327581987061,-3.3835136372228334,-6.261464837218753,-4.1310526821730065,-2.0171125578436744,7.0128545544514225,12.343584644206764,0,0,0,0,0,0,0,0,0,0,0,0,0,0,0,0,
302,-12.124738581226218,-15.549206093934007,-7.76628450167026,-7.232511084607943,-13.172037792897402,-12.99922665983825,0.07243082376493248,-6.6009633523874545,-7.816078706302193,-9.704509668956064,1.7406480750729116,-6.267858698410521,-2.299479303909692,-2.3828690848468597,0.6718127427849936,8.924098178701357,0,0,0,0,0,0,0,0,0,0,0,0,0,0,0,0,
303,-9.116092196429378,-14.297458169356347,-7.000033775317735,-5.810462550030243,-9.4073228534022,-11.621458617716138,0.09124195883916361,-9.921860746299492,-4.391667691154709,-8.688828599083095,5.496731297382439,-5.447098266778923,0.5483737433289662,-3.835338293464588,3.2291666266758625,10.632595458941687,0,0,0,0,0,0,0,0,0,0,0,0,0,0,0,0,
304,-10.109227440597508,-15.29207991261815,-10.975783079619408,-12.006805840218535,-9.708801015150865,-12.293018986137797,-6.3935250075486305,-5.881945677321152,-2.3506423844044235,-8.849471429155955,-0.32306397505725215,-5.520841132245792,0.2814149307906604,-6.010267074498046,4.985954397920665,9.237347207865774,0,0,0,0,0,0,0,0,0,0,0,0,0,0,0,0,
305,-6.320423947570113,-7.465997971111431,-8.350823227954699,-11.061485189610874,-5.810718329939807,-9.112942331653578,-3.9223560422877526,-7.619381462541135,-2.087272402141082,-5.732041935457943,-3.2958141261211864,-4.348261924268968,-1.4097018566564117,-4.188410506927539,1.7161096522352608,-3.593389620490875,0,0,0,0,0,0,0,0,0,0,0,0,0,0,0,0,
306,5.352561755819167,3.0321688930301036,4.390717520951561,-1.1247949338660206,1.62913545790164,-6.403803080636187,2.7561598993695995,-10.682721127414965,-2.883915714353421,-4.060618968060979,-2.237972876200743,-3.579855046830886,-1.9641354581712989,-2.3424598602570654,1.8903012476728023,-3.4967112782184344,0,0,0,0,0,0,0,0,0,0,0,0,0,0,0,0,
307,12.397621776818951,7.907162939227504,8.874796105486638,5.031855431662514,2.3253948119562438,-4.6424563214664545,2.4858772799972257,-0.09080016849750194,-2.7643463409212075,-5.927693447619376,-2.8907476313713403,-2.9347844923170783,-2.5330087431730703,-3.648187646473815,1.8167004733080176,8.989731319799805,0,0,0,0,0,0,0,0,0,0,0,0,0,0,0,0,
308,-0.993075895561077,3.881885186482549,-7.5265692845093355,2.2627198949865175,-5.021650155232649,-5.21058049742517,-6.759322902217761,6.096396571643531,-3.024236825488984,-2.1755920706152807,3.8880225189663022,-0.22396491388870743,-0.7291643128141772,-1.2235583920497106,0.5451423046045178,6.439776638950411,0,0,0,0,0,0,0,0,0,0,0,0,0,0,0,0,
309,-15.751978019263447,-3.9745599836660688,-18.944969470852513,-2.9041416944378255,-9.01092753158791,-7.410508486907446,-13.907060383836537,-13.08444213604993,-3.876056042084457,-2.5642330908699336,1.9341603710216546,-7.87698768377291,-0.03600417241793252,-2.547850627587195,5.011737971793465,-0.009766392080144293,0,0,0,0,0,0,0,0,0,0,0,0,0,0,0,0,
310,-9.226041352393267,-2.198036434295986,-14.919478004314797,-4.04398613141035,-6.3090000012481795,-5.165970541283642,-10.073420968554046,-18.152248755096153,-4.507436618548937,-5.2270157851904955,-4.288919745997823,-12.122235431077542,-0.9748685480682155,-4.447861531787815,10.5806460222923,2.8300595631678465,0,0,0,0,0,0,0,0,0,0,0,0,0,0,0,0,
311,-5.509668606004013,-0.9730026689647104,-18.363452664666582,-4.891051873198563,-7.836199003921578,-5.432343031066566,-7.199468891733474,-5.388891541786421,-4.986250066692449,-2.6917873525725327,6.907737536014924,-1.4759517476083346,-2.7096250587539714,0.6636974385988452,7.401990733366517,13.424480376147361,0,0,0,0,0,0,0,0,0,0,0,0,0,0,0,0,
312,-6.856485206204496,-2.046355433663919,-15.75821186210483,-1.929551648391751,-6.968025657826956,-5.815635528137065,-6.783571206431077,-10.443498360854136,-6.967158106420683,-3.886647178212357,12.632527116285603,-1.5654005755778329,-3.1853240097262514,-1.4803277882992418,-0.32267490899652174,12.298609287969336,0,0,0,0,0,0,0,0,0,0,0,0,0,0,0,0,
313,1.25821597555597,4.445159360135563,-3.786290197939536,5.517850623989872,0.10850898928575248,0.12579679651396702,-6.889726662639177,-8.72289268919863,-3.6349113526873893,-6.7876965843455,-0.027693269809914156,-10.530591319218008,-4.310826155006673,-9.916275876461427,-5.966636020247265,-3.69059496787422,0,0,0,0,0,0,0,0,0,0,0,0,0,0,0,0,
314,4.570534242572933,7.314002479766572,-3.7723456561925275,4.3370958710992085,0.13038991926450194,1.2104898389124514,-6.886024877222098,5.975055951273532,-1.0435933252535605,-2.147186165210943,-3.4016090083658534,-0.9339012294372253,-5.317619584451721,-3.1404862344109574,-3.8354661905076366,2.144778416646375,0,0,0,0,0,0,0,0,0,0,0,0,0,0,0,0,
315,1.211641012792711,4.239401235210096,-7.779142621880084,0.09679636165049033,-4.478784734161607,-3.9048420783068423,-3.530238643185257,4.963281273567162,-4.973392118921549,-1.4310364495663324,-0.1922018715410596,5.347670868275028,-4.216496044880403,2.2501365587395092,0.12193864740643481,13.044623782528939,0,0,0,0,0,0,0,0,0,0,0,0,0,0,0,0,
316,2.3190896291391425,5.268931037650219,-6.95249403459124,2.469803733995022,-2.550650597805827,-3.80437583613525,-2.955081019448869,-1.477668776662739,-6.760374750950383,-6.912125996284729,-1.5148437370848455,-3.531161391675207,-4.508109800943014,-5.278708732218616,-4.818558378790832,2.831935120951929,0,0,0,0,0,0,0,0,0,0,0,0,0,0,0,0,
317,2.0791160647516733,4.623063804313915,-8.127010233894637,0.8796877497369167,-1.6067670387715225,-3.2118420619499233,-5.693628514834586,-1.2017647688421533,-4.65755380407915,-7.752510113255386,0.8293438771934731,-9.263665540797149,-4.3669167768527615,-5.44554717425757,-3.805676085310413,0.24821552098685373,0,0,0,0,0,0,0,0,0,0,0,0,0,0,0,0,
318,5.635433556864683,6.774373673841694,-5.149489813000798,1.3769120915452788,-0.5096589181181201,-2.8733431896197175,-1.4818561978879359,1.959463355826216,-4.009218862769806,-6.356622135157107,0.7367125303549784,-12.322245849054031,0.2402590616510274,-2.1958597180149795,10.155208370722121,6.276457589472452,0,0,0,0,0,0,0,0,0,0,0,0,0,0,0,0,
319,8.134487517643933,8.151133929420155,-3.9416734978352963,1.9819935619856892,1.1840252119238244,-2.0981955455289807,-4.189741602091445,-2.884854191868584,-1.7872980857394438,-7.735558294321663,-1.613343992175146,-11.207783099077758,1.0766409945746176,-5.0794312049783485,6.668819550665674,4.885644149114611,0,0,0,0,0,0,0,0,0,0,0,0,0,0,0,0,
320,8.918769020331112,8.282169922150274,-4.856515423922147,6.108788116997886,3.4493921011561923,1.1949019947351047,-7.446411342230519,-5.097964790497031,2.204414632323008,-6.918352608784971,1.5403926606677842,-6.6058707514650195,-2.8243052731217944,-5.341147067919991,-8.45882769436264,1.8541555253983297,0,0,0,0,0,0,0,0,0,0,0,0,0,0,0,0,
321,14.136569454775582,13.761242764872478,0.6345141907350893,16.575915711153485,6.497726425415891,4.511077644181157,-0.6706925515553337,2.9773914619194954,4.7127033479550136,-4.663217455507585,0.7277726109039193,-8.855003579274637,-4.338771131266611,-7.050449238650188,-10.140170252998715,-4.004163206919785,0,0,0,0,0,0,0,0,0,0,0,0,0,0,0,0,
322,13.21224687952919,16.06548868281611,5.79389000185698,12.374808295382927,8.492081529831793,3.499315015774229,3.293253243471298,4.828016873182186,6.025655123391701,-4.490358894672141,-2.109274646559683,-11.361474893986767,-4.572857586011402,-11.079104107455684,-11.872016806684606,-11.291159097721774,0,0,0,0,0,0,0,0,0,0,0,0,0,0,0,0,
323,9.533117303464621,12.45263389807701,3.926756857775338,2.6602319922795985,9.652028227266527,2.0035754275365036,5.260784145847083,1.283024911212685,6.0836507412128356,-5.301872222984883,1.317133716656457,-11.661370315946371,-4.180986848649013,-11.075712824186567,-10.75788612049066,-13.646675323216474,0,0,0,0,0,0,0,0,0,0,0,0,0,0,0,0,
324,15.158923717776446,13.737143685629242,3.7094038453548137,7.692356105001636,12.19180139560185,4.135348415605904,8.965809266062834,3.4935257536918414,6.562068850924831,-5.749289220220945,4.9754699848002275,-11.194881295257176,-0.9871932989001664,-10.749359870197935,0.21485875356933093,-8.210089499139475,0,0,0,0,0,0,0,0,0,0,0,0,0,0,0,0,
325,10.23224751530649,9.77418357826572,0.7615981965106187,4.509664697862039,8.63315744637151,0.6973702142558977,5.076340300293573,0.3044452538622018,4.474307992190475,-4.990079916750929,3.678470972354333,-0.9123463951409434,1.8680906096767558,-6.717600091431919,5.369759959656605,8.208869753178757,0,0,0,0,0,0,0,0,0,0,0,0,0,0,0,0,
326,7.671223568270275,7.83753953310331,1.0804946574681686,-1.4940370471699005,7.645831157693392,0.014253242477323624,3.545896282814496,-2.8331334475801313,-0.5133621490001303,-5.8793963798459,-3.8911594796143305,5.022274943984442,-0.08580772210602561,-2.826765546651302,6.943452711748932,16.064150606566763,0,0,0,0,0,0,0,0,0,0,0,0,0,0,0,0,
327,17.25701730855659,13.555655686289281,7.315540463650827,4.568446788091543,12.909631180283945,6.067006728911233,3.6433908112727305,2.8341991150882526,0.1350723444773081,-4.352779281041023,-6.572035642586542,1.549192084415452,-2.6605625204296075,-4.082508614477277,5.660090494448873,3.1591545986054044,0,0,0,0,0,0,0,0,0,0,0,0,0,0,0,0,
328,13.837200728431828,9.747947342579995,4.3183539890169556,6.334329351497987,11.225578474988339,4.3894460604449215,-0.4168495122980964,4.091196899607054,4.411164291231245,-0.293770168611033,0.07402965085731239,1.7067232032915314,-4.071935815733369,-2.4525597770070817,-8.409153850235398,-0.6167214375360714,0,0,0,0,0,0,0,0,0,0,0,0,0,0,0,0,
329,3.1823110031744832,1.4982362746550706,-3.964268850979188,-0.6124136551486679,4.536686481773003,-1.8903350021557195,-5.856142583671254,-2.777364197708593,1.5146416849887885,-0.7354084362754634,4.051433979293378,-7.68761352512395,-3.5555259574014997,-3.564618357230543,-15.105932352783242,-0.39200258619573347,0,0,0,0,0,0,0,0,0,0,0,0,0,0,0,0,
330,0.18272640740864432,-0.6531269373319688,-6.833698622473207,-6.1490804975869935,0.09014749380856557,-3.7634924712788163,-13.062348917464625,-6.887698157187792,-0.7064700967435584,-4.8958400172025875,-3.989769497907645,-19.333231145177038,-4.614853677331865,-11.29557460833118,-12.26043574669977,-9.51212255898098,0,0,0,0,0,0,0,0,0,0,0,0,0,0,0,0,
331,-0.4348698049212203,-0.5755444618167616,-4.862174488154622,-3.7443991879858203,-1.2304896532609604,-3.4194031504729168,-11.442823699252052,-6.437949230155752,-1.0958002119763535,-3.6389603433264597,-9.1952526067561,-6.593942733647438,-4.885620123440333,-7.057096479364404,-16.84855346450577,-3.442167382868279,0,0,0,0,0,0,0,0,0,0,0,0,0,0,0,0,
332,-3.204448928842467,2.4442283502448277,-1.6025301961675922,2.3395873232597353,1.9646469446403074,-1.8806293437040154,-4.746810663198303,-5.410434572622691,-1.1399623523379177,-0.9074581702064819,-4.399197744808362,-3.42324028465012,-1.5076092399379348,-2.511529912272721,-19.0782802345569,-1.2845021573140043,0,0,0,0,0,0,0,0,0,0,0,0,0,0,0,0,
333,-5.858850508832134,2.353536449176417,-2.5072414287693903,-0.39445474041748696,3.309926667221731,-2.6792409099253973,-7.567605097068352,-3.3809114662716695,-1.3675050269127098,-1.0253025410397214,-5.090710126770539,-13.386461073033004,-2.302460574994349,-6.942860195965025,-17.076865757438085,-11.548675220495397,0,0,0,0,0,0,0,0,0,0,0,0,0,0,0,0,
334,-4.705282624262537,-3.12772791467043,-3.4249445079790064,-6.637564510958981,1.0941131630050904,-5.37402293847498,-6.67391558457625,-4.900047242252526,-2.7727111944906824,-3.143665762370965,-6.256755195310674,-8.115088993267761,-4.820716598545161,-5.214746144641296,-13.101063504160255,-0.7014959413778517,0,0,0,0,0,0,0,0,0,0,0,0,0,0,0,0,
335,-3.4500700296848237,-3.412981110135803,1.3990394478170032,-6.555073889824982,0.5244186737218968,-7.5161792672985115,0.8399461587505499,-17.275363913750795,-3.3040876929637193,-4.629783382132452,5.608131348157826,-4.8676315887703225,3.5102650230533357,-1.3172680386083897,6.447169185794451,8.336822531199651,0,0,0,0,0,0,0,0,0,0,0,0,0,0,0,0,
336,2.660614385085779,4.688403823686755,11.04973831416872,-2.879843755538573,4.90257329439639,-6.3550227389605,2.522381354315158,-18.851773663049826,-0.08128518155629649,-4.652406745450143,10.245185805805047,-8.412762669882603,8.932373526455535,-2.599895523438839,24.288368957581994,3.2374168168592643,0,0,0,0,0,0,0,0,0,0,0,0,0,0,0,0,
337,9.846751316012842,12.50971193555226,11.828408070145656,3.714288057051917,10.676028838423676,1.861098441456619,-0.49922357559373154,-2.907452280945151,2.7418674834207764,-1.4938502864577679,2.1262212841594383,-1.8059969180962696,3.526492103059983,-1.6930124188432814,21.217806273585282,4.901961132196314,0,0,0,0,0,0,0,0,0,0,0,0,0,0,0,0,
338,5.254462921196392,11.547569855215443,-2.871449037549098,8.550368882137633,6.736276565224387,6.221397612048293,-5.774615130805245,-0.32129248724619686,2.2784337371506176,0.3391029153533758,-2.117611620949446,-0.8232858141795951,-2.2071255277929875,-3.0960958096670357,2.897935330971869,0.7609933767581492,0,0,0,0,0,0,0,0,0,0,0,0,0,0,0,0,
339,6.016266956201662,11.632401669276675,-6.565866151034967,9.601195022670993,3.2764538342635205,4.766856081223111,-6.998903351015812,-0.7780213111328891,-1.3511598655836776,-0.006715940043013013,0.40295333177559556,-7.201495326856554,-3.208470117881805,-5.106656214487433,-8.011367035639577,-5.308480614381281,0,0,0,0,0,0,0,0,0,0,0,0,0,0,0,0,
340,9.605948287516583,13.762667503622538,-5.374269167169487,8.977325431528868,5.786523944141891,5.066667373320627,-8.596037138028834,5.67262529278203,-1.1402574976437299,1.7675402065451769,-1.5291952161123596,-8.303587300151637,-2.6965689002324353,-3.2631028820461045,-4.408290365184325,-5.8954927449013645,0,0,0,0,0,0,0,0,0,0,0,0,0,0,0,0,
341,6.735880170882211,12.999927105293779,-10.383539894418135,8.185575611210353,5.533437942127577,6.0577742758596,-12.367633698994837,3.583067215668464,1.4003436053508338,4.442832885554157,-6.051873817387751,-8.848124647638656,-5.89739317233127,-2.4278251296134776,-6.59271089043359,-11.867233426358892,0,0,0,0,0,0,0,0,0,0,0,0,0,0,0,0,
342,6.145285844645713,11.601909391568427,-7.122215205675943,6.320934103546179,1.2194563644067102,2.2541179790843984,-12.729402823263527,1.4899495090285342,0.12013987529612535,2.11982626975578,-2.6965556049723958,-8.166301844739912,-8.703254786881775,-2.2477023712318953,-10.29356770496576,-6.774199775820097,0,0,0,0,0,0,0,0,0,0,0,0,0,0,0,0,
343,9.135990125367357,14.579468410395961,-4.728427817989001,10.680080600690417,0.38921810059757433,2.4902841135411364,-7.842610241158326,7.313162052467476,-1.7788438052045024,-0.3077070275950078,2.4293815844873308,-1.0784900091272647,-3.4695189196082623,-0.047949948602507675,-11.766863907828967,4.581237047382647,0,0,0,0,0,0,0,0,0,0,0,0,0,0,0,0,
344,13.30697369194256,17.590875865119457,-6.59713411674997,15.8529886140945,2.684080252069151,6.609554928338696,-0.4168026309384061,8.100651265301295,0.6433268669377981,1.2820868010071536,6.077315772138782,0.5819079360015564,1.051307873115853,-1.2358290506362337,-17.572650251509444,2.0162806120045786,0,0,0,0,0,0,0,0,0,0,0,0,0,0,0,0,
345,20.370202706173657,21.965359477803005,4.855648880622795,19.3903085357704,7.622712851682152,8.539289946420823,6.895653119685804,13.39816050320691,3.933714838200885,1.259649671518055,8.153242974964641,-2.051470203386401,0.07909826831207312,-4.334317742125741,-11.277616620644359,3.462190234029695,0,0,0,0,0,0,0,0,0,0,0,0,0,0,0,0,
346,15.471547057412934,24.18029433742467,8.14295912129252,25.271480040542286,7.242449512253117,7.017318593478606,2.996009022699468,24.8886852773307,5.150004222333436,0.3496744005706489,5.090401782504955,3.2867141600601144,0.6913050055004533,-1.9613792943645763,0.9408568271468454,7.565399723013886,0,0,0,0,0,0,0,0,0,0,0,0,0,0,0,0,
347,7.303525337052108,21.4276674958042,0.10046601239657349,27.285176296331407,3.6769643813231028,5.694724542525648,1.8825278624910453,19.089270404385637,6.679179199701579,1.6677492653161323,5.712328676249285,7.73065762345631,0.289309713661666,2.0634984621701022,1.9380886905329788,2.0491578129553822,0,0,0,0,0,0,0,0,0,0,0,0,0,0,0,0,
348,7.365169220365047,16.85538313346951,-0.9630007655209241,21.301679443848606,3.998880215043428,5.464466233857301,8.748800244537804,6.925093951483504,7.2431018786699894,3.6012763438100848,6.831316451326032,6.47648946702995,-2.8842146620488904,3.5811508305418727,-1.4562153634044677,0.3191924707477831,0,0,0,0,0,0,0,0,0,0,0,0,0,0,0,0,
349,4.202798532386723,11.513441360207523,-4.696611755339003,13.391016637723993,2.754717285705137,1.4432175023074656,3.01992916772495,11.174394609179195,4.02780150537194,2.9726569177823876,2.7842419737541064,6.868638264847036,-1.741876508416766,4.3377262213563625,2.9372018360763974,3.6514318420428573,0,0,0,0,0,0,0,0,0,0,0,0,0,0,0,0,
