%OpenBCI Raw EXG Data
%Number of channels = 16
%Sample Rate = 125 Hz
%Board = OpenBCI_GUI$BoardCytonSerialDaisy
Sample Index,EXG Channel 0,EXG Channel 1,EXG Channel 2,EXG Channel 3,EXG Channel 4,EXG Channel 5,EXG Channel 6,EXG Channel 7,EXG Channel 8,EXG Channel 9,EXG Channel 10,EXG Channel 11,EXG Channel 12,EXG Channel 13,EXG Channel 14,EXG Channel 15,Accel Channel 0,Accel Channel 1,Accel Channel 2,Other,Other.1,Other.2,Other.3,Other.4,Other.5,Other.6,Analog Channel 0,Analog Channel 1,Analog Channel 2,Timestamp,Other.7,Timestamp (Formatted),Annotations
0,-6.463221800273743,-9.324241423092502,3.6395651874315504,-4.885876891345738,-3.4944001851266506,-7.470832694541009,1.9433620015846245,-1.7471992551393,-2.0889946282217977,3.056016110081984,13.232302042103179,3.028426731386773,5.071392158573097,3.4434263687829514,12.210368393724185,0.0014450287797860284,0,0,0,0,0,0,0,0,0,0,0,0,0,0,0,0,
1,-4.232031179640174,-5.292380817738689,6.8108749443834995,1.477754876384708,-0.8174491388622158,-5.376145450930757,6.807338463628284,4.244367625346847,-4.850992091888216,5.755789723987782,11.747799929079967,7.579348505739105,3.0750199548150476,6.197974554233916,7.284099391094706,7.554415032522386,0,0,0,0,0,0,0,0,0,0,0,0,0,0,0,0,
2,-6.354004632841026,-5.498198792310177,5.173140050219459,3.7264975680139543,-3.4124677852241234,-5.81623821129827,6.944552645879199,8.652545088244786,-6.061529539937737,8.55583794408168,12.89460331514628,10.839025916876949,2.953896182821282,6.895696329003449,0.36641689927740373,1.028430911820978,0,0,0,0,0,0,0,0,0,0,0,0,0,0,0,0,
3,-10.55907628447936,-10.806478731357458,-0.9232346924396637,-1.2422317645454797,-8.88296208208071,-8.186057543610843,1.5753958671217276,5.346809306640559,-4.3316175622301145,7.578305454711732,13.2468322348942,10.445031888970327,5.1899236040957675,7.061096606541447,5.3951483620358225,-0.19777438681884973,0,0,0,0,0,0,0,0,0,0,0,0,0,0,0,0,
4,-10.151382556236996,-10.502553427682699,-0.8454109931460749,-3.2335466843464786,-5.700974579889305,-6.578583149087706,-0.4981386589329162,2.6638973119576264,-3.460264382221794,5.564848869186157,8.475344445315322,8.913420349320965,4.7797871379263945,6.732124095088189,7.232349337324319,4.158347764890086,0,0,0,0,0,0,0,0,0,0,0,0,0,0,0,0,
5,-5.722740414493714,-5.081996027137706,5.408945359680274,3.721994676784064,-0.09290573800413426,-3.861235688787133,6.053641181037378,5.221972411398113,-1.2650623132443712,4.6161809860991525,7.852447136178088,6.68646121659831,2.6088208812365856,3.3740645497539035,3.429067197278366,-0.5638001184432708,0,0,0,0,0,0,0,0,0,0,0,0,0,0,0,0,
6,-2.5273004133188266,-1.8218251081925558,8.236177511883284,6.074010637135288,-1.35357963778074,-3.2196271066624575,10.067681228387471,5.553081289140977,1.927128992586292,3.7706284525383182,11.751502691993249,4.087503869594432,3.5089857739225554,0.9603328191649858,4.336149487589094,-2.5951253767194125,0,0,0,0,0,0,0,0,0,0,0,0,0,0,0,0,
7,-4.003265338151152,-2.0343720323405705,5.344794218491614,1.9300506467677536,-3.359122074031319,-2.9690871802825427,6.0319333582949355,1.8463363990899353,1.644656240649726,1.1265806141212291,12.347829796547536,-2.556628635854274,3.224494304300112,-3.7478923694685182,6.95704679523834,-5.907057509983437,0,0,0,0,0,0,0,0,0,0,0,0,0,0,0,0,
8,-0.9959955391429247,1.5081268406568995,6.563588976131669,5.528616863760064,1.1738024636131854,0.5570241144526307,6.893582961669324,6.0819318472454995,1.0197029226165153,2.5800681549847777,12.803544620409266,-0.63072536014423,0.7105589593897408,-4.115455007725331,6.6099561256812525,-6.235909378536864,0,0,0,0,0,0,0,0,0,0,0,0,0,0,0,0,
9,1.0936247182807932,1.955746872974288,8.611555621133405,7.2314904337323895,1.0983934795109036,0.5027986356602412,9.401301402042762,13.067448131493066,1.131361592915841,6.628568685823333,12.335848833656542,13.311240333837631,0.20070701994016105,6.432753269007069,5.934591184142867,12.928110918233163,0,0,0,0,0,0,0,0,0,0,0,0,0,0,0,0,
10,-4.164861921203936,-3.3505403063360575,5.635009620275341,3.698972604623208,-5.300019730402028,-3.2697426150870257,6.946927550442538,12.371626512918326,-1.3694295844723428,5.998477032718981,10.101035733835115,15.098427718670603,0.6120972204530979,10.536500486760314,5.23280647628507,17.60423683788923,0,0,0,0,0,0,0,0,0,0,0,0,0,0,0,0,
11,-5.9158182066323235,-2.128486529709278,2.045645833613122,7.443304503517126,-6.169805035521463,-1.747871835031944,6.070276799183304,10.921549214994883,-1.8228342451539348,2.113175141852526,9.48371100881976,6.32275970372153,-0.4342033584520095,4.652463419596231,4.425659684082618,5.752796692652602,0,0,0,0,0,0,0,0,0,0,0,0,0,0,0,0,
12,2.1885539995926564,7.422987317694464,4.988674177236675,14.444601912303597,2.417031218004979,3.827587076601361,12.189207070241878,13.513406054726872,0.5774540011848899,0.1440196504930995,10.452612159752697,6.173580556508739,0.8156187792911069,3.730360448034048,9.593138624849463,12.383357527802936,0,0,0,0,0,0,0,0,0,0,0,0,0,0,0,0,
13,4.058241761183837,5.499816887805622,5.280583705813413,8.879919899983918,2.4991155840531576,-0.28811157834692835,11.666040237923013,11.865138860760574,1.6486736549719723,0.7545860388579229,12.036534814499625,5.9338778400005125,3.7348534726157965,3.9914587328977547,15.320258985047431,14.356309576135398,0,0,0,0,0,0,0,0,0,0,0,0,0,0,0,0,
14,-2.2646398818994413,-3.7969735503672837,1.426096700495691,1.737386001899523,-5.57728544178579,-7.125983344985961,4.496254326094018,9.75585629440409,1.4066378144488993,0.5303059987574628,8.577449223649602,2.8402549570031397,2.3440348939478213,1.1507728747141428,13.093035168251987,6.371717241968586,0,0,0,0,0,0,0,0,0,0,0,0,0,0,0,0,
15,-4.390315017834823,-2.3435887632889845,3.3533951877638017,4.721860476321169,-2.4201191406304545,-3.235211529825442,3.307758537014834,11.699765141657167,2.877868085478852,1.4585561716494055,2.888741840952285,7.066501687506431,-0.8290539179669807,1.6303711088915875,6.260990903785093,9.4661141255546,0,0,0,0,0,0,0,0,0,0,0,0,0,0,0,0,
16,-0.9522335322741355,2.2885890230194192,6.065480809234444,5.160780361747662,5.474664915970479,1.4395485262438683,4.858382029603291,10.544238947025175,4.295319909469228,3.841569432278561,2.0905750074406413,13.458070051583078,-2.0411729661267017,4.678571805537324,2.6672946026898217,14.139461347667783,0,0,0,0,0,0,0,0,0,0,0,0,0,0,0,0,
17,-2.1639679789861788,-3.1500075446356703,1.7863466347374164,-1.331684853383063,0.9681578890549787,-4.437987125009574,1.3354273460160115,4.996787937702017,0.9055376791551168,1.119408778493849,0.35717406524650386,11.496220978051653,-3.0677417991731843,4.767374010778923,4.675250041485725,13.089850595364922,0,0,0,0,0,0,0,0,0,0,0,0,0,0,0,0,
18,-6.381306057133752,-8.474955924783561,-1.1358944954474701,-1.9197651606172386,-5.331482946715919,-8.497567568499875,-2.3907728447718526,2.3953178197609333,-0.9929331333802622,-2.482656062516284,-3.4273228044318245,2.9560668557986816,-3.402017204909342,1.4353000638264888,4.076420577580038,7.072589077110539,0,0,0,0,0,0,0,0,0,0,0,0,0,0,0,0,
19,-7.352775035979031,-8.192303252369324,-2.6260859114239503,-2.484614068979152,-5.096764595889785,-6.54902069039051,-4.429953557251182,-1.4056481492326167,-0.5351970939615143,-1.2842457480754348,-4.494975286807787,1.1206629856317676,-2.424655683819182,0.3860694401530651,2.204298102710581,1.7089059760210077,0,0,0,0,0,0,0,0,0,0,0,0,0,0,0,0,
20,-2.797410441476325,-2.0523745243748976,-1.7329749988655099,-3.642452660693267,-0.8588633549102518,-2.729410011481555,-2.7326553262087954,-3.881966798906794,-1.510830337097417,-2.3641765368623737,-5.852656359352096,-1.595157799087417,-3.1688005372734196,-1.4521365736107583,5.925055732728623,-1.4104889460025944,0,0,0,0,0,0,0,0,0,0,0,0,0,0,0,0,
21,-3.0383429407338767,-0.2967250337512404,-2.7165345544588426,-3.207990364308042,-2.0093350059517014,-2.262332020339114,-4.837793099241699,-2.497568291406024,-4.853214746291812,-1.5406639518005534,-6.5358154551370475,-5.562577158321531,-3.5442374666056935,-2.180820071714038,6.632733615437637,-3.782756595510211,0,0,0,0,0,0,0,0,0,0,0,0,0,0,0,0,
22,-12.385221575160301,-10.6109262219051,-11.373129599587728,-8.511296275419717,-10.670848014234515,-7.583896217581,-14.376788581071082,-3.773400841531661,-6.960456934129425,2.326415602842175,-9.364478213965,2.096375704312905,-4.014403813212979,1.5693939337079001,-1.152712436739023,0.7627568908824607,0,0,0,0,0,0,0,0,0,0,0,0,0,0,0,0,
23,-13.681870509934612,-11.71641231909689,-10.920826510965966,-6.609879561149221,-10.217399455258885,-6.931935984582097,-14.343503422077475,-3.9766639459089497,-7.717094755631351,2.7562688228671135,-12.986425235015233,7.741835712617217,-5.106446035684414,2.661269829696991,-5.517610581972775,-0.28100056035031784,0,0,0,0,0,0,0,0,0,0,0,0,0,0,0,0,
24,-2.3826638155002087,0.08761536500929878,0.9410365374781335,3.029019634918889,-0.7687861224426413,-0.44523217761805967,-3.579178213743681,-1.526595358239291,-4.4545585949569215,2.622203100102084,-8.3205413526561,3.3503901473027042,-3.644398620724651,0.6959361893457086,-3.567680599204124,-5.875342166103723,0,0,0,0,0,0,0,0,0,0,0,0,0,0,0,0,
25,2.7126067537730734,0.46588505331357055,2.490085496518475,1.3816511801761564,-0.2615997657690343,-1.7837074380472515,-2.0284809490267293,-1.7436770927981087,-2.376060492705008,3.2485139028457155,-0.712238627878321,3.6618438150358656,0.48683607385807903,0.6483065940453656,5.2038170195091595,-2.31329523202087,0,0,0,0,0,0,0,0,0,0,0,0,0,0,0,0,
26,0.9456802882706796,-4.0170623415180415,-2.4909658372849606,-2.1275379375278334,-3.2926248961999107,-3.8614320246253016,-7.77945098141474,-2.258402141579019,-4.3704098010212675,2.1031259163388185,-3.3751136083420192,5.845894607301375,0.5145778483344259,0.13130542024225633,8.931745183076927,1.0438085785854918,0,0,0,0,0,0,0,0,0,0,0,0,0,0,0,0,
27,3.6206619274846332,1.2868936939743207,-0.7350923441257748,-0.27081410786421145,0.2212118395288769,0.4099755046828619,-7.947192704447772,-4.075268262158062,-4.787085367526167,3.5615093772091697,-7.772311434210437,6.764451825621762,-0.571830834600334,2.2824788618311302,1.7096282215036886,0.8286290411372823,0,0,0,0,0,0,0,0,0,0,0,0,0,0,0,0,
28,6.924643313182571,5.370772724274843,2.1146202976012773,-1.173527763112432,2.997675345226668,2.538953639488099,-4.9551957557130635,-6.302204411924322,-2.1929077546981333,3.0007738520876757,-6.750912220980727,4.990048369452914,0.8152483886540338,3.392651267666075,2.9682218516333485,3.509843170741627,0,0,0,0,0,0,0,0,0,0,0,0,0,0,0,0,
29,8.437253090373801,5.447581562331408,3.002919409360402,-1.095185996577257,3.288038328994432,1.3902795148243285,-3.4278507946929295,-4.064341560596759,-2.933445986595494,1.768048029419127,-5.864777275370441,1.8324793284267713,0.6939136962150165,0.061685050767177785,4.910937031177738,-2.1591624140329286,0,0,0,0,0,0,0,0,0,0,0,0,0,0,0,0,
30,6.2905562604381515,2.845840521526682,1.3226397050013645,-2.8691713448485956,1.3003722882875763,-1.8191113882114394,-3.770237505047689,-5.373619321745522,-3.6500278906315593,0.4888276291007223,-7.162896474163841,0.6855919990129955,-1.406986671783116,-1.7570718805653023,0.8435235323944106,-6.877147847329889,0,0,0,0,0,0,0,0,0,0,0,0,0,0,0,0,
31,4.131264981179555,0.07286718657265112,1.28346031749642,-5.334435411330958,-0.8323565996563929,-2.3287349238398036,0.09924506071891415,-7.912630744305062,-2.9812994356920113,-2.927831264975655,-6.197991854283208,3.3161240477788,-0.6365596308950412,0.5322973200057692,6.664201268931844,4.342685904313839,0,0,0,0,0,0,0,0,0,0,0,0,0,0,0,0,
32,7.851322719494021,4.395478672207005,6.053540856663304,1.2334689067957783,1.4043274756137265,2.466298270711704,3.0649363310237163,-3.1591153720216596,-0.29072573026831794,-1.8256175498789329,-1.5358823326752997,0.9991836500536078,1.949881908941105,-0.8258693558480132,8.074459266182046,2.242540280967102,0,0,0,0,0,0,0,0,0,0,0,0,0,0,0,0,
33,13.733301992374791,10.53239559075071,9.925091752032856,7.402274386048006,5.65461194984924,5.55329142367242,-1.1009897946585738,1.0668344179723874,2.6420773992526776,1.3528967890193755,-1.0349404011464074,-4.125456783943705,2.873352406541441,-3.468747989277351,2.728836332377135,-8.674009476443189,0,0,0,0,0,0,0,0,0,0,0,0,0,0,0,0,
34,13.031119148953138,7.0284362262435565,8.227724290697552,1.0966445277098558,5.550824066425022,3.3174780879136705,-4.81983443843562,-1.751626993403093,1.417075401801199,-0.2001277663410317,-7.411792287974592,-0.42433265332266856,0.011380171793019755,-1.3367512906168137,1.1770607283250758,-0.996222481217302,0,0,0,0,0,0,0,0,0,0,0,0,0,0,0,0,
35,9.961288955457121,4.454346448532618,7.753244604841612,-0.2881236656824626,7.674282195898442,5.267468274568429,-1.2358552904445332,-3.4078356625966393,1.5332435237103468,-1.320455261904037,-9.110356929800211,-1.2212937340143597,-2.4717132391915193,-1.9485293665272643,-1.8459235896227675,-1.0337879195090913,0,0,0,0,0,0,0,0,0,0,0,0,0,0,0,0,
36,7.297688353910345,6.748772443160888,5.733220774653233,4.743489804325634,9.561604386541163,9.124331143280202,0.9995991758346605,-2.3716817257819116,5.8424192450432955,-0.5828038875578585,-6.247493368599315,-7.259879795533777,-1.9773429766624595,-4.85609128639971,-4.027168137695451,-9.810901143992627,0,0,0,0,0,0,0,0,0,0,0,0,0,0,0,0,
37,6.2323375853792555,5.344505140861244,0.03012797404370815,1.928048996571036,5.1606200869458405,7.770704308087019,-1.6041557770360981,-1.0005153030131382,5.153159112017889,0.8787474801814668,-5.667582471037029,-1.4128162932045996,-0.662251510569412,-0.6640813482697325,1.06290473792156,-0.34142292695616305,0,0,0,0,0,0,0,0,0,0,0,0,0,0,0,0,
38,6.852979837419966,1.360814181146523,-0.8356948508561857,-1.6602404670646536,1.7477638988784037,4.865524726137934,-1.5309287863052532,1.2119897748895028,1.2816561174176258,1.3938842268387077,-4.201923269821698,1.3734439587019693,0.5416486318683056,3.1605260679954768,8.623010978671104,7.19845551852104,0,0,0,0,0,0,0,0,0,0,0,0,0,0,0,0,
39,10.968800405285037,6.099060267518453,7.904449975048465,6.275183339531033,7.632281667192927,8.822497020689298,6.649606987836492,7.08662481545943,3.4834393014211855,0.7728829111613962,-1.853685538238473,-2.202859332038585,-0.34746509501552936,0.8815383272769068,4.221128095642349,1.0430711387469742,0,0,0,0,0,0,0,0,0,0,0,0,0,0,0,0,
40,13.042084327025307,11.092465574957274,11.786055994814596,11.656874703891042,11.869753482655646,12.241891306850505,10.453927647505097,10.334206463412094,7.944523900604892,1.7569746129058075,1.391770671124867,1.1816797126965355,-0.5687032310340072,-0.9994373295915935,-2.10434567322703,-2.0485630920888127,0,0,0,0,0,0,0,0,0,0,0,0,0,0,0,0,
41,12.19735339515929,9.911842679756823,7.634176697528957,8.5219118356245,10.804491804589386,10.545185693488719,9.477336135115152,8.476435129416835,8.742101818025333,1.0254069072650083,5.623690538614639,2.315040264640345,2.064246379563045,-2.3320669277023143,5.020521276218403,-1.0017678767932807,0,0,0,0,0,0,0,0,0,0,0,0,0,0,0,0,
42,12.508068502257707,10.039645757359875,6.006287445849576,8.6800161881178,9.420534324105983,10.259501187776706,9.758289100418637,7.783862454957557,7.737658526176972,0.4311927467505541,8.557299884127566,2.4200665865212727,3.8318360518314307,-3.29901275526214,7.30261899342397,-0.14122549350489066,0,0,0,0,0,0,0,0,0,0,0,0,0,0,0,0,
43,9.73664070749868,7.364787112036712,5.2113424368670405,8.886584066801348,5.927076442566898,10.044014234261203,5.6166962469976,7.77233050409126,8.867127432870845,1.8319253033215261,8.646950345725529,5.3021067706835225,3.9162677486891724,-3.5400593457808327,-0.5691947421090049,-2.4293358096589053,0,0,0,0,0,0,0,0,0,0,0,0,0,0,0,0,
44,1.1538106870573612,-2.4204638860425316,1.1809346843024375,1.4870368709274953,2.107909907808226,4.721368119649768,-0.6959451357182218,2.7887382862325114,6.754938776598053,0.5920516607079094,5.820761167068014,4.692195543304933,4.380435073300596,-1.522233019837941,0.5050007395768006,-3.1086652373117936,0,0,0,0,0,0,0,0,0,0,0,0,0,0,0,0,
45,-1.0697091657151923,-6.519081691237778,-0.9241344514531953,-4.236008755452524,3.0092172925236405,-0.4839509046286903,-0.5057810380663579,-2.824610862072462,4.1285555290110665,-3.0252040511451526,2.980678778763526,0.6961135410659551,4.748426808507425,0.6717686786936952,7.475041403504534,1.0774886470435092,0,0,0,0,0,0,0,0,0,0,0,0,0,0,0,0,
46,-2.6638110650567555,-8.480510742621341,-7.493948555261152,-7.498042904732021,-1.3714535868905209,-5.236231785615939,-1.8816144834141397,-5.987485012821907,2.896111232662392,-3.9991466953454733,4.148811830506261,-1.7363169791882598,6.061776038991525,0.3557718062483701,11.003049977360227,-4.103842131589669,0,0,0,0,0,0,0,0,0,0,0,0,0,0,0,0,
47,-5.947380235037592,-8.164712677104255,-12.271362710385908,-5.550210854108045,-6.245106582129139,-4.151181621696701,-5.8625586978886375,-4.68142655212478,-0.8969711535327889,-3.0734077263740005,4.018711343982602,-0.19613898067552782,5.190017688187353,2.021281788838408,9.78424381736108,-5.926228207074704,0,0,0,0,0,0,0,0,0,0,0,0,0,0,0,0,
48,0.7686517071296493,1.1389410927991364,-5.117168875703733,2.303039119363511,0.4839806304951182,4.23016956489581,-6.539847504673325,-0.11656134723686762,-4.171502608035524,0.5610129969690831,1.1759940969459208,4.343417156389407,1.925906802124203,4.7039245612695595,2.5858413811657925,-0.8973709046697707,0,0,0,0,0,0,0,0,0,0,0,0,0,0,0,0,
49,4.888878706832415,2.8683776770007086,-2.497745295584039,1.8747122139630434,4.810636617641805,5.4724364785608515,-5.4163273106814245,1.2780236927050126,-1.8631305824885374,3.2184555145903673,-0.4531696903594167,3.48300349190572,-0.19892375972609244,2.2922237576961138,-1.8601196250990881,-4.365311099983634,0,0,0,0,0,0,0,0,0,0,0,0,0,0,0,0,
50,0.6224110381021006,-3.8442695939939853,-6.508959938520576,-1.9259536864805114,0.41794301891332,1.8342075052480311,-2.018366611644538,1.4302337480853282,-2.0621770223615243,3.737406602105615,0.7209847104128073,5.327590590403119,0.5429160195833731,3.6460466821829414,1.881005979256365,-0.07686655529707309,0,0,0,0,0,0,0,0,0,0,0,0,0,0,0,0,
51,-0.9549286726985429,-4.706695652776844,-5.640759777843485,0.5239536652458696,-2.2545045265879224,3.0160189378805455,1.1629040445430974,2.970610576939791,-2.5710898530403625,4.872502905377885,3.8246138980778817,9.797466332214796,1.9854891365127685,5.871611285583924,3.168488991105516,5.526825444553639,0,0,0,0,0,0,0,0,0,0,0,0,0,0,0,0,
52,-3.486484134421829,-4.5795180158738304,-3.8808508820150536,0.38912032521139395,-1.3813302602075623,3.4925013110058813,0.21680186282583236,2.36325463096491,-1.3484274066620543,5.55214411940684,5.796977375321703,4.835714999970001,4.154118411348016,2.0292188626700636,4.672979978005877,-4.360675475452994,0,0,0,0,0,0,0,0,0,0,0,0,0,0,0,0,
53,-4.212681022313532,-4.595343517448697,-0.16413678421761801,-1.2693940371369763,1.5798066957880508,1.5473221170014426,-0.7461804887744847,1.2086923651289823,1.071026899944421,3.749598964400036,3.1846527365001283,-0.32217378635474603,5.410428813716017,-0.4670511871492664,5.4160692955053875,-7.911253969201315,0,0,0,0,0,0,0,0,0,0,0,0,0,0,0,0,
54,0.8604451068552663,-2.116398566581694,4.3199652279755725,0.2557955268807035,1.7733198429721284,0.6305786866517309,3.8814254879552266,2.309001961617412,3.604829296310516,3.0197596581496953,4.787869911124784,3.9489629786530287,7.523980916015276,1.3098998986314996,3.5500749874028816,-4.114011247296068,0,0,0,0,0,0,0,0,0,0,0,0,0,0,0,0,
55,-0.020850383769712266,-3.7391842579774703,0.013662194724503252,-0.567321321810013,-3.861416514561327,-0.8330670734509766,4.471638299204358,1.0711288164736317,2.960379402180127,1.0989244214087641,10.840992184780404,2.990833526973006,9.843257690607818,0.6783206178806811,8.982066551828975,-4.002361272823562,0,0,0,0,0,0,0,0,0,0,0,0,0,0,0,0,
56,-1.0593429488449857,-3.1159769708705767,-0.8867865355541369,0.18431722119204608,-3.2517723471505064,-0.4076626957059091,-1.3450456641619297,-0.7222752724464385,1.1015672798428588,-0.7689999746694944,10.929405555104942,1.896792451864055,9.661374344159343,0.3866433047282243,18.279316394763903,1.7520479121130315,0,0,0,0,0,0,0,0,0,0,0,0,0,0,0,0,
57,-1.0495374369682224,-1.6971269361793588,2.625857845577613,0.8371959898017849,-1.963303097150387,-1.278194837082296,-1.5795438573815375,0.3040175275893233,2.183637249100297,-1.4042896811831755,6.476939860362815,7.252490754102368,8.356561253116576,1.7537097632416652,20.290452379058888,7.702573384254816,0,0,0,0,0,0,0,0,0,0,0,0,0,0,0,0,
58,-4.820380154832989,-4.410172253359946,-0.9221238277598474,0.21378038409383748,-7.688344150099553,-2.2863538443285307,1.5587578352952818,2.7339023555811366,1.9899066591536787,-2.4293871922806396,2.9704663649740475,5.985884520787899,5.933669031216679,0.20108502569770081,11.051701736223354,3.048096833286831,0,0,0,0,0,0,0,0,0,0,0,0,0,0,0,0,
59,-8.013912404494775,-5.721241594404447,-5.848014053857099,1.6848536315642662,-10.497482441711611,0.2607282558010411,-2.846616358819901,4.463794740293281,1.3939831413104073,-1.3631673003074845,0.20911904956878047,3.880020896515198,2.839284499198179,0.37262532677500104,3.5653293203932748,3.2335856355921457,0,0,0,0,0,0,0,0,0,0,0,0,0,0,0,0,
60,-7.652619522743322,-2.6199633457939626,-3.8279171188918895,2.0863932990191643,-5.65877270076389,1.6762394974252288,-5.8993969137823115,4.714944494843891,2.080810538819783,0.10521115338190867,-3.8542678913051844,8.584995739237236,1.7264716687863029,4.989412122010783,6.616515583619702,13.142589319644049,0,0,0,0,0,0,0,0,0,0,0,0,0,0,0,0,
61,-7.330182606943296,-3.670625547168129,-3.5385580379779213,-2.1440989404906077,-5.500841845039972,-3.062685719371089,-5.3620361139029455,-0.28508073535996914,1.694609508451066,-3.2192026423010347,-9.482392384196913,5.594565601310045,-0.7417173893158875,3.485473631222682,1.1524323455590562,11.890405980237176,0,0,0,0,0,0,0,0,0,0,0,0,0,0,0,0,
62,-6.755862590965009,-6.727845529830631,-5.680803207402846,-3.996811056799544,-10.096548338233148,-5.497584021900238,-2.627110949915931,-4.251746276327303,0.5813658325034936,-7.474661456510184,-9.463044163840735,-3.054328674931668,-2.463629901506515,-1.9430451824712165,-6.083799071928372,4.240077701719535,0,0,0,0,0,0,0,0,0,0,0,0,0,0,0,0,
63,-6.130245578851515,-4.988888705129483,-4.8310657642161345,-1.2921273364170034,-9.463655598116247,-1.4608258648667487,-0.6312414160306901,-1.902954890000018,-0.07865388655007166,-7.174234679761419,-3.8666501274641973,-5.239726656923693,-0.6806181413224976,-3.435819726654799,0.466989695763111,2.607763452129575,0,0,0,0,0,0,0,0,0,0,0,0,0,0,0,0,
64,-0.21519079283342535,2.122695605373785,-0.06335885341211878,5.137246025854523,-0.5841842448685242,5.246318946838379,-3.0102795235275153,1.278761836910796,1.8700101467894257,-3.7051724176573373,-3.8511366186281037,-3.9524418947390103,-0.767782311066675,-5.27198132439095,1.8547313643793686,-1.4262883264473558,0,0,0,0,0,0,0,0,0,0,0,0,0,0,0,0,
65,3.2025376373500407,3.3238638502488485,2.505376125472452,3.2273053234156066,3.948956264643563,4.851066665993592,-7.35114991560404,-2.5286433055313964,4.640414919118129,-2.3502662461978616,-7.828781514472659,-5.049824343453594,-1.534504990262647,-7.272000691267998,-2.0402293276303,-5.964852015216081,0,0,0,0,0,0,0,0,0,0,0,0,0,0,0,0,
66,0.6698978203301138,-1.2302147239398096,2.589087531187367,-2.445328547265241,0.9165712689608014,2.0766017903031226,-6.428044878276218,-4.295730144982606,4.122074273070297,-4.477743100050731,-7.829595612133936,-6.908781887676398,-0.16194187851968422,-6.699937146172388,4.784187564984492,-3.808621206964922,0,0,0,0,0,0,0,0,0,0,0,0,0,0,0,0,
67,1.4893423472432552,0.6779107818812591,3.9238394737071776,5.380466785206794,0.4247574187911418,6.474185269479342,-0.8198289173528011,1.6770724424751897,1.6748364029309641,-2.1632981410659795,-3.301745377669967,-0.8020660099136023,1.696459394409871,-3.283211857807487,9.932746420336855,0.9282841610698043,0,0,0,0,0,0,0,0,0,0,0,0,0,0,0,0,
68,2.5790666575245806,4.868263099440734,4.947062744641883,8.00788262560615,2.7686600624871236,7.418588833450832,0.4151506944423873,1.4661468317586497,2.6238639479595065,0.2082045064983049,-0.6618506342408068,3.3782028035092537,1.4309452399105425,-2.278407348931296,5.32219740613445,2.9065947217612127,0,0,0,0,0,0,0,0,0,0,0,0,0,0,0,0,
69,-2.5831443244002514,-0.823796381789279,1.0828548020543032,-3.1956016413537105,-0.13367671747044518,-0.026271114901193826,-6.368281374583222,-6.613880450096288,2.504713174388044,-3.309471662966075,-2.4089666152332043,-2.02667747281221,1.0481051241888224,-4.257924114537474,8.0200025070828,0.8560810992600842,0,0,0,0,0,0,0,0,0,0,0,0,0,0,0,0,
70,-6.0204712351991425,-6.134124147301133,-3.15033588056507,-3.7430041210751277,-4.09033749149237,-1.086389690051071,-8.065090278914202,-8.421431700950821,0.8299033810326506,-3.861757411819795,-5.939168519827021,-6.212834236745849,-0.30178849288788,-3.9374247967135574,5.13059244311421,-3.0218974853749963,0,0,0,0,0,0,0,0,0,0,0,0,0,0,0,0,
71,-8.308647071848597,-5.907387588206369,-6.224116130562265,-2.400248961242866,-5.742790797359206,0.4251184663390788,-6.243093033499825,-8.403769810416435,-2.8780451257342605,-0.3785569449579498,-8.584953342866179,-5.10568060311239,-2.960614103147904,-1.5057878353649983,-9.955882870732893,-5.721792335625082,0,0,0,0,0,0,0,0,0,0,0,0,0,0,0,0,
72,-10.32215846071091,-7.908851812895151,-7.907667089929433,-9.484306143273002,-4.868821713269114,-4.019348745088841,-11.132193973107348,-12.163725013020606,-5.205949010907233,-0.907557860218347,-10.168041012066134,-3.4838762641533947,-1.7302319713807393,0.8939851130065648,-6.343033384328926,1.1994054763999813,0,0,0,0,0,0,0,0,0,0,0,0,0,0,0,0,
73,-12.742830814556328,-11.889015873746317,-8.973870766249966,-12.959885896897255,-4.362291875826763,-6.483635008581622,-17.88602298809721,-12.586523106497452,-4.390783918051852,-1.762066431808563,-11.715430789781465,-1.934250652661774,1.196208868953292,2.722832095556072,1.8498192164859475,5.686886862687427,0,0,0,0,0,0,0,0,0,0,0,0,0,0,0,0,
74,-15.802068758043347,-10.896376616172148,-11.585493422308971,-9.587939065822844,-7.095441565422448,-2.166348946394571,-18.38115464689583,-6.943276089431194,-3.7241424018948237,0.3275850469077781,-12.903934303866379,-0.16221975836953106,-0.58158937943751,2.4972653240265643,-8.35395940175487,-0.4097537718233557,0,0,0,0,0,0,0,0,0,0,0,0,0,0,0,0,
75,-8.278756935234298,-3.282156358154893,-8.911449854533274,-2.8013212795450926,-5.353285291499503,2.7250210764307923,-12.857124474931297,-1.955044058224253,-5.540137465923863,4.886496888281542,-8.71429850602119,3.5334295412700243,-0.6536576876767413,3.8542390105503017,-9.868671809991277,-0.5559755240428546,0,0,0,0,0,0,0,0,0,0,0,0,0,0,0,0,
76,-0.34506005797744876,-0.1912930668084556,-4.7592913201464455,-3.6533748839193407,-1.2832800391698669,-0.17059646690165664,-10.862253116198744,-3.748144387813987,-5.503645604361651,4.518781260143122,-5.757437795908864,-0.1779308032407485,0.8609810460546257,1.720494538970918,-1.4436485221812063,-0.5777574371438273,0,0,0,0,0,0,0,0,0,0,0,0,0,0,0,0,
77,-4.346086137526939,-4.302690884204253,-6.1961706110851225,-11.740295190406272,-2.741283628375143,-5.663803596906845,-11.294521363304867,-5.771728064243831,-4.488868043068585,1.6322829232279972,-6.8911052706483495,-4.454163247878128,-0.14385843669147746,-0.6541384121615934,-1.877883134930837,-6.116499585796484,0,0,0,0,0,0,0,0,0,0,0,0,0,0,0,0,
78,-7.096107382292274,-4.959637392953965,-6.440031572879249,-9.970296296442086,-5.4602887598946666,-4.4311252733230475,-9.49940918385606,-3.596387101549979,-2.9797275296915195,3.049053513709673,-8.615794902185051,-1.576402543161315,-4.238082062933188,1.9727961680789896,-8.50133523757096,-1.3514739600637986,0,0,0,0,0,0,0,0,0,0,0,0,0,0,0,0,
79,-4.5817594388662,-1.8151279255875181,-4.646159648958516,-2.947327586111683,-5.285761116257689,-1.3021085362304348,-9.145019526766788,-2.748389828162516,-3.0814865973133436,4.594276483942725,-11.638045819020109,-0.2608804007236749,-7.766394547299608,2.6115586656405867,-10.339196007756549,4.11425937005046,0,0,0,0,0,0,0,0,0,0,0,0,0,0,0,0,
80,-6.278913515568121,-5.55412251531925,-7.594927666449067,-9.6068459274384,-6.642773502950334,-4.734310133320662,-9.23744258444512,-5.608121704606475,-3.631980862403899,2.0544240604171424,-12.733946162599285,-3.4720668627093474,-7.450199553284868,0.09015862399981955,-7.274405385605771,-0.151108030123714,0,0,0,0,0,0,0,0,0,0,0,0,0,0,0,0,
81,-9.270877315261544,-9.8164828524949,-10.269047841592666,-15.167213651737256,-7.96499834462827,-7.717416077233096,-8.929879280860732,-6.916118480417381,-3.3594330477029324,-0.9120897779317538,-9.423018545290995,-7.721957284270468,-4.3594686262469065,-1.2151133010715518,-3.8701340809061957,-0.12042925711870822,0,0,0,0,0,0,0,0,0,0,0,0,0,0,0,0,
82,-11.532400185651,-9.57702518226769,-11.602885422697682,-10.319302619680968,-9.187207309023663,-7.239798462350265,-14.007710590752964,-7.118342865855951,-2.4375600180129062,-2.623325462669558,-8.348759308788258,-11.109354853969679,-3.002760254619438,-3.2921177054886783,-2.4656302748906054,1.5502415607224727,0,0,0,0,0,0,0,0,0,0,0,0,0,0,0,0,
83,-9.890659001183508,-9.401428435635381,-10.044861002524826,-11.367350039518115,-8.128380679618047,-6.8278448453838365,-15.38726606787074,-7.922301145973407,-1.8943530925254493,-3.38445293897221,-13.143747183740135,-11.055847779369874,-4.900309495714019,-5.213653060350872,-6.772168947458596,-3.0588296498404723,0,0,0,0,0,0,0,0,0,0,0,0,0,0,0,0,
84,-3.8995825553284647,-6.718329409737379,-4.040678978847993,-13.533488393911242,-3.2987778562814043,-5.221642120035725,-9.442338381713753,-6.822064766994245,-0.32039499815700623,-4.322824761485613,-14.610107232929135,-11.676517433513467,-5.831923132892303,-7.065363931661999,-13.431872108496421,-7.1666043222612785,0,0,0,0,0,0,0,0,0,0,0,0,0,0,0,0,
85,2.070709189570607,0.3431384607335701,-0.16075012205978112,-6.671543072718933,0.8133433672499422,-0.32025183357237097,-5.47545246473446,-2.1326359895219866,3.5000091702002436,-3.253268289794889,-8.205217878447801,-9.305111110004106,-4.386949980813661,-7.463124667318844,-13.888957121840697,-6.328697984257694,0,0,0,0,0,0,0,0,0,0,0,0,0,0,0,0,
86,0.903970331691923,1.242247465165974,-3.3467308516464556,-5.904572435579311,0.06323548265359591,1.222588186334903,-6.229263194814138,0.43845633636092884,4.5811326279166735,-0.7837578317894938,-6.266442131934802,-0.2057537755404084,-5.705006850216073,-2.9300693653626197,-7.702610191433024,3.3917558538834847,0,0,0,0,0,0,0,0,0,0,0,0,0,0,0,0,
87,-2.309960241704445,-0.8431532081208815,-4.474772692231966,-7.002370683869827,-0.0050857126760064375,0.40207798738351386,-2.902929350607266,0.9054230063725015,1.506594540486148,-1.367484639619235,-8.195780240123966,0.12347079203833289,-9.086322264470311,-0.8648104849812199,-4.160399109702361,7.840111104328219,0,0,0,0,0,0,0,0,0,0,0,0,0,0,0,0,
88,-3.4304039141245823,-1.6839956563900316,-3.488050776986725,-2.6773194327968213,-0.008838533458472853,1.1040397443709935,-1.7472796777003836,-0.3635230893565691,0.8106562571614262,-2.134813383910398,-5.153998418459658,-8.268119306400393,-10.24416244689175,-4.978603012483738,-9.817232298872774,-6.083100381957568,0,0,0,0,0,0,0,0,0,0,0,0,0,0,0,0,
89,-2.4056825562115165,0.3394310182664668,-1.5764475369168807,-2.632210476871407,2.4547916049916765,4.271999722773749,-7.3205944747390745,-2.5806757145931414,4.206235702190966,-1.8448248613003386,-6.6394189460537945,-10.600084206935946,-10.073440817520073,-8.088692195526505,-12.927959742284074,-12.617869740760533,0,0,0,0,0,0,0,0,0,0,0,0,0,0,0,0,
90,-3.3588061746936404,0.3932826497064852,-0.13959699889153399,-7.68407441208808,4.2111231371480855,4.058530021896498,-10.501059718750252,-3.8968854196777336,5.201285496713226,-2.604390379684105,-13.58195974693433,-11.396902597417906,-10.107102011997213,-9.468713868656359,-11.826530856047022,-6.648879643346756,0,0,0,0,0,0,0,0,0,0,0,0,0,0,0,0,
91,-5.567277321152098,-3.887520577563887,-1.5347279490490635,-8.642902450913034,0.6014909344948336,-0.4343918302289502,-5.151853603486426,-4.933750288004578,3.514024357243372,-1.8945383252576562,-13.046338308232883,-11.926809075730048,-9.724405504754515,-9.902662313413757,-17.448650596938954,-6.726175956336299,0,0,0,0,0,0,0,0,0,0,0,0,0,0,0,0,
92,-5.124047334417968,-3.310177042336745,-1.813204672700571,-6.546298235394703,-1.240848450731319,-2.4137333765705336,-1.7281896634255922,-7.393100309420042,1.3833391413757283,-1.6121935125287052,-5.785488342303395,-10.438279188095663,-7.212924238927052,-7.807896755250226,-14.658819532595068,-5.785761976430813,0,0,0,0,0,0,0,0,0,0,0,0,0,0,0,0,
93,3.229406957868312,6.234220217050248,4.053075411358243,-1.1442888915836757,5.98119490253756,2.465571600673756,-3.5884813369046697,-5.556071074465936,2.8965699148878628,-3.4347449102512826,-5.040275006170418,-14.806430525450097,-6.651116730948587,-8.642396845584258,-8.497814713981931,-4.59877419877791,0,0,0,0,0,0,0,0,0,0,0,0,0,0,0,0,
94,8.924098320897937,8.81038323950689,7.272247689052389,-0.14353338267846816,9.509027481908657,3.6650073908523044,-3.705434027942051,-1.3258599862873162,6.140275912441183,-1.9284163676471593,-5.478835627234503,-15.589315424472787,-6.6448275643518215,-10.366077619222708,-13.747100889485196,-12.28061051920102,0,0,0,0,0,0,0,0,0,0,0,0,0,0,0,0,
95,-0.4421735673942564,0.21404304614834047,1.844713298018938,-3.9040058255867436,1.1359598686183219,-1.27326204068099,-3.298175771303974,1.0509442790492827,4.865120486997299,-1.071809978185854,-1.2758500198502247,-9.731221424678964,-3.9522868261706066,-8.160425192746317,-10.705955413060096,-11.040324578985103,0,0,0,0,0,0,0,0,0,0,0,0,0,0,0,0,
96,-6.63257757834608,-1.791451012901895,-1.6096151387271362,1.7748182480989954,-3.9583359696755807,0.25130793236305493,-3.34529364428014,4.77995307174778,-1.6749508045114254,0.6823358687744587,-0.08064262294112012,-3.3880374498040027,-2.2498601166110817,-3.5818803451808634,-0.6013403051602069,-1.72349718719898,0,0,0,0,0,0,0,0,0,0,0,0,0,0,0,0,
97,1.2295497610390953,4.18223113087064,1.6093167258681689,5.9009444431290206,0.6388233258075715,4.556719712175926,-0.8634515129465044,7.402792062184616,-2.4937484366377447,4.867337371046318,0.8927855593370424,0.8460774267719842,-2.8386648885971653,-1.6634023467480858,-2.8093001699020377,-3.1674312590153058,0,0,0,0,0,0,0,0,0,0,0,0,0,0,0,0,
98,1.5121341206340304,1.033730310495514,1.0847881673437314,-2.284625742027387,1.0774526378022387,0.6960581183625436,-1.0201260184273764,4.140920378929522,0.3308643650179732,5.943195069380934,3.473674872703846,3.5486931072132535,-2.350174032730905,-0.0813485653726218,-5.654479313802646,-5.479165272772475,0,0,0,0,0,0,0,0,0,0,0,0,0,0,0,0,
99,-5.435580142011602,-4.991609802047961,-1.4652935732542005,-4.109893539496582,-3.249002596913911,-2.7459444269396727,0.07812943861539168,0.6191545824126976,0.10246566584244476,3.8626090759690825,2.623603509508982,3.191557363681568,-3.1460826529208887,0.7903302984250615,-2.8996337434450936,-2.5633329632870216,0,0,0,0,0,0,0,0,0,0,0,0,0,0,0,0,
100,-4.277865157274405,-0.27330041840808406,0.7872677337528984,3.2932945879005047,-2.3691150147204922,0.40416315581434503,4.662391383024371,0.38843430814840474,-1.1568369131412268,4.768818790857026,4.157064413004047,1.4058101304082555,-4.593098022370434,-0.7955309307664251,-6.753757061080858,-8.34073600038139,0,0,0,0,0,0,0,0,0,0,0,0,0,0,0,0,
101,-4.312832192303432,0.2624698935627805,-0.80375803120792,-0.7497166014916985,-2.7432112243980242,-1.624823170044678,1.2991433072541696,-2.0793754060803593,0.8876780500245331,5.504761126529218,3.3541065865255746,-1.8969627950229722,-5.07120423683746,-1.3979597819148708,-11.723571714244699,-11.222539600338282,0,0,0,0,0,0,0,0,0,0,0,0,0,0,0,0,
102,-7.6945635525757154,-6.523212041821594,-5.905474328007813,-9.639284306929284,-6.889017593503823,-6.90331891611919,-4.424290818052569,-4.313410754163499,-0.9991938101126081,3.0377395100735356,-1.5626304402910556,-4.994957678390556,-5.314313463903527,-0.6938598675798744,-6.785612159035775,-6.588660638156724,0,0,0,0,0,0,0,0,0,0,0,0,0,0,0,0,
103,-6.6044113826379345,-4.075827381309196,-7.048621035475904,-3.25280480856874,-6.735736792367192,-2.47467557725561,-6.730168093698339,-2.424304012209049,-5.87867250476193,1.1650018914861775,-4.903498481441838,-6.839650928920165,-8.339091868242589,-2.515261410706316,-6.183005308507749,-9.669149227667077,0,0,0,0,0,0,0,0,0,0,0,0,0,0,0,0,
104,-3.6755356238610233,3.568978872092714,-4.274354343121942,4.153266793616481,-3.1620720240712927,4.3241340634876195,-8.731941942084816,0.7206116753456939,-7.118436954472294,2.5312857965180324,-9.599702933639353,-6.145299822336705,-11.303915739120105,-2.892154224663452,-15.536862086988359,-11.950030923245679,0,0,0,0,0,0,0,0,0,0,0,0,0,0,0,0,
105,-3.5499811480403167,1.8029310281239788,-1.930258177306115,-1.9700363810935642,-3.2799537026459262,-0.21207424076342818,-6.273777343370156,-0.3643289616315144,-3.7142746971866583,0.9807659990316386,-11.398816663929754,-7.337360444656826,-10.535591848979946,-4.45391500787671,-21.05668105579878,-10.295476192517683,0,0,0,0,0,0,0,0,0,0,0,0,0,0,0,0,
106,-1.5700258529310958,-0.08979544410955498,0.7427918152594941,-3.7953413583280025,-2.6227020360125834,-3.5767250071621106,1.3657386828219984,-2.566568211500339,0.47881978933461156,-2.3347535695172588,-3.5885026166242593,-9.973155718923767,-5.50005991531551,-6.6699343934929285,-12.158726267121882,-11.029280657470792,0,0,0,0,0,0,0,0,0,0,0,0,0,0,0,0,
107,1.2864838482756937,6.639164518964094,4.136982359759742,5.109628580015951,1.0813820783249213,3.179518597572468,6.838148232944022,2.3770925813421258,2.243010162348938,-1.8469872114425474,3.3564838935582486,-7.8965672409515975,-1.384826863591849,-5.377702829541471,-0.47129197238441556,-9.874372853927223,0,0,0,0,0,0,0,0,0,0,0,0,0,0,0,0,
108,4.417725515438249,13.627649477428093,8.241014463608536,12.9647931900612,5.36042173169497,8.701056335672718,10.814673376801395,10.260656214156327,3.133715722460799,2.312843193295379,4.270745887622006,-0.35971558395411307,-2.4595300414394323,-3.53751351723092,-4.600624313878932,-7.811115727155574,0,0,0,0,0,0,0,0,0,0,0,0,0,0,0,0,
109,3.8781360292387745,9.618508595817175,8.082126758718289,6.664461285476079,5.0880269235399,3.7763733644407296,8.484141232620217,9.219737152197155,5.596065214505522,4.631544389020366,4.49570230957935,6.387678756391381,-3.0155695195089827,0.4256402486114226,-8.488671779933831,1.158665321474075,0,0,0,0,0,0,0,0,0,0,0,0,0,0,0,0,
110,0.772818461543892,4.105467380105466,4.112192590655496,-1.0749547896148925,1.8382254666333608,-1.5251737881479954,3.87350438990876,4.546278224872083,4.720565664168944,-0.11708516017473158,4.022084847810383,6.020260201834162,-1.1072859101094679,4.40099468839437,4.465803841673868,13.181138136120843,0,0,0,0,0,0,0,0,0,0,0,0,0,0,0,0,
111,2.758168739222768,6.632735546338864,3.0764810471032433,1.567791423789302,1.1973294483923382,0.20475176054043231,3.1504147442289394,1.3912365735870864,0.7711937709120065,-4.593689559105982,2.637965991761952,0.5824264431395392,-3.222116383065206,2.6051423303631083,9.238744123513019,8.48347362283041,0,0,0,0,0,0,0,0,0,0,0,0,0,0,0,0,
112,9.481937677915539,12.84480432751284,9.785849634188054,6.035444143140765,7.474110155379364,4.640179548453531,5.344407297090555,0.7883952276738242,1.5107075172846862,-3.0933320940973275,0.5081248220232055,-4.208796271077659,-8.126972389330014,-1.0332685950903553,-5.947122421827856,-5.593332689230927,0,0,0,0,0,0,0,0,0,0,0,0,0,0,0,0,
113,6.797480267039489,10.71393958008079,11.053474764338475,5.867479791973878,9.895626264866252,2.184935729033562,5.657368196870657,0.5996777718529742,3.2981632884604437,-3.9266814962091203,-1.6457355719007651,-6.941985751608101,-10.22390180695821,-4.132808174570897,-17.920547738756362,-10.227537481561118,0,0,0,0,0,0,0,0,0,0,0,0,0,0,0,0,
114,2.0166211160306418,7.262595167347342,3.9328462178125676,2.170469741012454,6.790101596801399,-0.8570525730196366,1.2402834557475444,-1.054415193027232,2.4103435063375116,-6.734855503654174,-2.363750204981855,-6.072402242201747,-8.307602146563006,-5.389133016719491,-12.844352772480939,-3.537406409164795,0,0,0,0,0,0,0,0,0,0,0,0,0,0,0,0,
115,4.544401750616586,11.401020351141177,0.3201064528433264,0.6113648603291857,7.124381900940357,3.0992671437713533,-5.330545806684803,-1.7147418700498385,1.9270736554936718,-5.033657178483367,-3.9670657476114997,-5.1989730675635,-6.047244170019923,-4.846418044957417,-2.7940432991595543,-0.2333198783564967,0,0,0,0,0,0,0,0,0,0,0,0,0,0,0,0,
116,8.037465525096014,13.846905055305417,3.0066200361272326,5.012212047122565,9.820002808306487,6.200355700498566,-4.835177312527383,-1.3080373982132532,2.293780856687164,-2.28834373624683,-5.81355878359836,-9.841329031201454,-7.534091430447305,-8.028977465503573,-1.2175426404461476,-6.797900881745214,0,0,0,0,0,0,0,0,0,0,0,0,0,0,0,0,
117,9.93857645508141,11.11565934215447,6.467556002189796,4.801334663898175,10.259593715421682,3.506360015799773,-0.5784299540464841,-2.252410945138778,1.6085243066990813,-0.5546314054797676,-2.3666231955343306,-9.414077323257203,-6.53440761236395,-9.184062109068961,1.227130470458654,-7.940646808891504,0,0,0,0,0,0,0,0,0,0,0,0,0,0,0,0,
118,7.238023014057173,8.12896217534502,4.82535444685708,-0.9066316846325275,8.316632719224886,-0.17288999252625104,-1.7906226679470478,-4.3016270026125945,1.984136062316864,-2.9249290689485434,-0.6718039363560635,-4.002725793455284,-4.339993250649812,-6.175688612755138,1.791819869782664,-0.030899743368387078,0,0,0,0,0,0,0,0,0,0,0,0,0,0,0,0,
119,-0.5449345976836995,3.367446560082392,-1.7100826221379535,-5.440449017138349,4.853690097868935,-3.0566834971545447,-5.643802625494299,-9.361243758452126,1.1212490072541783,-6.650702470320596,-2.3048634206202365,-3.7035160234105433,-4.882048523591642,-4.186344261411904,-5.893236075589819,2.0700180242209605,0,0,0,0,0,0,0,0,0,0,0,0,0,0,0,0,
120,0.5929745738124268,3.41094111839881,-0.34272555811889305,-4.7123858176257585,5.336257897894988,-1.7640948504235467,-4.048091162745024,-10.5682712636564,0.8281947696069949,-5.597581338516719,-0.5588582131045214,-7.1432325293417875,-4.498152128196232,-3.8720116822308626,-9.947271630832837,-3.324949720447851,0,0,0,0,0,0,0,0,0,0,0,0,0,0,0,0,
121,3.3960945032334706,5.012771029794685,2.298092955568272,-3.844524586985166,3.0362054446325857,-2.4807988273052715,-3.9813235114981964,-8.539961127972813,-2.8568669016202364,-2.775513957091988,0.8845543544457115,-6.087958234385724,-4.257131487483328,-2.033099040202387,-6.455264975195917,-5.676485797966677,0,0,0,0,0,0,0,0,0,0,0,0,0,0,0,0,
122,-0.8130419768476855,2.2866922183327745,-7.714821858872014,-6.9713366758855955,-4.456317359631626,-6.540755187027834,-11.474081105802028,-9.53756230660084,-8.640994947038166,-2.9029935092694643,-3.0517257920082272,-1.4800981820583274,-6.319911191899209,1.3554809993091865,-1.0952991977787008,1.3269994921601818,0,0,0,0,0,0,0,0,0,0,0,0,0,0,0,0,
123,-1.3531881486606494,2.523576174122013,-16.046039060385908,-6.359625449385746,-4.749268524592068,-2.973285625141017,-16.96729384314547,-7.0665254508109285,-9.917500006677344,-0.6147507408755573,-7.33739362381089,1.8505873396001107,-7.636381824573853,3.263065664230467,-5.84478843621023,3.8422452561109246,0,0,0,0,0,0,0,0,0,0,0,0,0,0,0,0,
124,0.9893875189646621,6.301089612907674,-10.76780661409039,-1.8186950264250186,1.0383534693601177,2.8622652426271316,-12.826428153222466,-2.356313717280095,-6.2789573561943115,1.6342423384189217,-8.976810594621782,-0.459032062569392,-9.715679995416451,-0.028319023619815198,-18.09600309708997,-4.058520370369414,0,0,0,0,0,0,0,0,0,0,0,0,0,0,0,0,
125,4.328843706737828,9.461123372390958,-4.981358873032107,0.5158797751768134,4.922521652505239,4.140052987619839,-6.866636445284314,-1.8116875060177833,-4.0628181515427,2.865582878365352,-6.9090456721520255,1.3797547480307486,-8.615048367947665,-0.4162888501666515,-12.850689496515187,-2.498825106302465,0,0,0,0,0,0,0,0,0,0,0,0,0,0,0,0,
126,5.95846532144877,7.943762921694798,-8.190629086738156,-2.045156377088432,4.256568401982108,3.4833285015685505,-11.057870102756482,-3.5628910949508565,-2.6344803296161317,4.824273638699893,-4.356782565278641,3.656400197481439,-4.87825142644904,1.6779574497177094,0.4008700903694553,2.983663468118759,0,0,0,0,0,0,0,0,0,0,0,0,0,0,0,0,
127,4.36784204509118,6.528655107094622,-10.536918835965935,-4.370688605280819,3.272308662836892,2.8467051414548195,-17.884791770156724,-5.207258666063211,-2.379191996737365,4.440073845310259,-5.4299447437491075,-2.3723178940463967,-4.5832340745430145,-0.2513471660076938,1.8673113735673876,-2.853564722745979,0,0,0,0,0,0,0,0,0,0,0,0,0,0,0,0,
128,5.464531718103586,9.238676337974113,-9.339718147146854,-1.4791531164014913,4.944348960960397,2.7640694255827754,-16.539422509306448,-6.748106445520094,-3.0586184019791123,1.4749539136352965,-9.4384422158269,-5.747333516984238,-8.012278226961833,-1.4737306588378445,-4.895725961862139,-4.160904292296223,0,0,0,0,0,0,0,0,0,0,0,0,0,0,0,0,
129,6.692831156426436,10.082586341145273,-8.604671177811014,0.5972410403525146,5.505116384504703,1.627426988799897,-10.474239137584988,-6.401952893859118,-2.6835685755018748,-0.7411460624704311,-8.109007496614339,-3.8598439498311237,-8.508342410849822,-0.48987717032049805,-7.5128758377132145,-2.522898784137954,0,0,0,0,0,0,0,0,0,0,0,0,0,0,0,0,
130,3.843651064907732,6.634368799746412,-9.515501190509823,-1.9206746792993812,2.058491357557898,-1.116486005280663,-8.768905841340455,-4.579508304187655,-1.2304057527497907,-2.827164991744978,-3.7448657140184007,-2.3058421299208742,-6.234656493557887,-0.4749609201848193,-4.1645896811165946,-3.0743844439791026,0,0,0,0,0,0,0,0,0,0,0,0,0,0,0,0,
131,7.651102319357165,8.212533391959042,-6.769939540033391,0.8410737825786043,3.7058498928049346,1.8303038171853814,-7.701824091354538,-0.3029332343416229,0.33106130427014335,-1.5750035653271919,-5.521966388154155,2.055492271983386,-5.973321923139109,1.1837012347714602,-5.240464626588567,1.2482923181089767,0,0,0,0,0,0,0,0,0,0,0,0,0,0,0,0,
132,12.233022205367135,10.719127300726385,-2.144995866412188,2.5873632478232196,7.611057486997424,4.935383604373271,-5.009450268964187,2.017593604609928,4.092587549691352,1.8565620523793456,-6.694742020849382,3.4970720067446948,-5.099936713993355,1.989807979262249,-3.808371515018237,3.6775223982069356,0,0,0,0,0,0,0,0,0,0,0,0,0,0,0,0,
133,7.063259340374486,7.231993190109208,-3.246594887103882,-1.257076104905181,5.521057848310036,1.6271561945978448,-5.6084491252397015,-1.5592181515428791,5.851347695124481,1.688800988877027,-4.726548902032992,2.499802487286381,-3.277223117815108,1.2185962141874676,3.095356333965647,7.729181664862619,0,0,0,0,0,0,0,0,0,0,0,0,0,0,0,0,
134,-0.5023987515182,2.925640868607289,-8.520459803695275,-1.894303703564546,1.545385735339309,-1.8975248512257394,-8.87586242400242,-5.331529181818368,3.581064636929341,-2.2396739420041243,-7.59790659493801,-1.3675048913778127,-5.992149322933884,-2.991451290767529,-2.164166540251223,5.210707181697032,0,0,0,0,0,0,0,0,0,0,0,0,0,0,0,0,
135,3.0070370843908023,5.581028420662236,-7.1167307648428135,1.3622473754910374,2.9273664280690497,0.675003279214792,-5.8230152709318475,-2.2790876536070215,2.0569705678425407,-4.8446493836930955,-11.35022206085506,-8.343001277426502,-10.622207919232274,-9.903710181977182,-17.330086439139848,-8.923543603464559,0,0,0,0,0,0,0,0,0,0,0,0,0,0,0,0,
136,11.530639464405667,10.489397043155591,-1.7925740085975193,4.681605232792975,5.598214773716748,4.081719225286953,0.8899663291293223,-0.21678202948988456,3.0671049830025368,-4.415359370502131,-8.366354464618482,-9.347649669596962,-10.474313494585402,-11.521481719646864,-17.69959629428532,-10.057447082889134,0,0,0,0,0,0,0,0,0,0,0,0,0,0,0,0,
137,16.799829370992725,15.891350481022855,4.135811922561047,11.477142289117054,9.800739234782448,7.917478270194458,7.1898640752639835,0.5441649398511643,5.238912801599426,-3.993971993793643,-1.1545027072153573,-9.493588790046516,-6.734530702255022,-11.672609135199416,-3.384458402961343,-7.434304487038329,0,0,0,0,0,0,0,0,0,0,0,0,0,0,0,0,
138,16.056863823687763,18.144729081239987,8.212095566699347,14.77972453667877,12.700323187407157,10.200426189749678,6.402032059217518,3.419248910038121,4.975159407042156,-2.7722144836978657,-0.7898450997454347,-10.15370710717508,-7.136662459388965,-13.352256869738461,-2.4014950038702665,-16.015130133969507,0,0,0,0,0,0,0,0,0,0,0,0,0,0,0,0,
139,12.863311411343375,15.696420741359308,8.422113903122234,10.665885578471197,12.314432457761022,7.645984892364623,3.0542884956861585,1.666406399184666,4.392953316437769,-1.5220812193592224,-8.1878153501196,-6.824804201640362,-10.437797059986323,-11.119944517184479,-9.04796529850735,-11.99568293334184,0,0,0,0,0,0,0,0,0,0,0,0,0,0,0,0,
140,12.449876759604955,13.153162965069926,6.897520003587008,5.165807270149653,11.185579303705756,3.046617017475434,4.091515657654533,-1.82860294669959,5.372349121978743,-2.121038367286971,-8.89515915491345,-3.098792807586875,-8.850343859831668,-5.634401499893727,-6.072345821017279,3.789499444073975,0,0,0,0,0,0,0,0,0,0,0,0,0,0,0,0,
141,13.739496599484557,11.698737739364805,6.2821345919130565,4.193616547196745,9.007590847807803,0.6969160889466464,5.1421533512866695,1.0323966443808894,6.5224557734571675,-3.5590506262407757,-3.211891873705511,-1.7201656343345206,-5.462241669739093,-2.6234226344069356,-2.6964205683838074,7.675505522458618,0,0,0,0,0,0,0,0,0,0,0,0,0,0,0,0,
142,5.836244842823627,3.832464441227808,0.2410408075343753,2.7810690911718163,0.5886066175089777,-3.127134876789202,3.934529092256371,0.6632334270454581,3.3690032079164496,-4.617342067550183,0.6977442940942353,-0.15984124377801834,-2.9081022011835387,-1.7857553900436045,0.7157390648295987,5.426409093534289,0,0,0,0,0,0,0,0,0,0,0,0,0,0,0,0,
143,-1.5134139123437933,-2.3389373961976894,-5.07067527123187,0.7705316099289128,-4.997012580760707,-4.997356054002733,4.432384095454239,-2.6499966575887317,-0.834762999663738,-5.671663651933571,1.1665382154549775,-0.7170218130851396,-1.97562871336104,-2.37183625767328,1.0204615803471597,6.203499444108839,0,0,0,0,0,0,0,0,0,0,0,0,0,0,0,0,
144,4.335454284929121,2.0632978444036496,0.7347617832549744,1.8533043990599616,0.15258736151951524,-2.055926269474991,5.88451759781762,-2.941137603721703,-1.2914121380058816,-4.120286195135606,2.2641582569765717,-4.234103873276709,-0.8609626690872361,-2.7407644081702784,-0.42865817039321996,1.9715879845797808,0,0,0,0,0,0,0,0,0,0,0,0,0,0,0,0,
145,7.445724047777858,5.327104564653538,5.2959352942115245,1.7623589302893876,3.134505964999171,-1.564484077643641,5.773030825946833,-3.62767349318419,1.6041251324641053,-2.058799192509582,4.404053913159828,-1.9139590146374132,1.5946085958884169,0.6641092812102016,-1.2746839262228704,4.508201164106989,0,0,0,0,0,0,0,0,0,0,0,0,0,0,0,0,
146,-3.1539783925939844,-2.5936811146462944,-3.2642026582592294,-1.7772454332292966,-6.338499431306893,-4.941431439709426,3.376578380989727,-5.801195257505839,1.113061980606858,-2.6920342230066865,6.549247327307093,4.278402147590384,4.443367000192239,4.050354339727782,-1.4094876775889418,7.99565085445237,0,0,0,0,0,0,0,0,0,0,0,0,0,0,0,0,
147,-12.218601386220925,-12.192878975451578,-12.204222639240797,-4.025239580775022,-15.900554871169177,-6.668554790033369,0.8563413958745087,-6.762301868445363,-2.1024183745267777,-4.750307064090343,8.600221194446533,1.0046646925560907,5.804088792230736,1.065614051338649,8.780316820045826,1.7569218169395757,0,0,0,0,0,0,0,0,0,0,0,0,0,0,0,0,
148,-4.129667385387307,-6.147695518643005,-4.5205127150821625,0.8260824998209841,-9.156782423066602,-2.8032232791580185,2.759360655441327,-2.257942771770132,-5.12898336804507,-2.254646039042072,9.66339377455806,2.1722514605264536,4.740017189838355,1.5388876344440519,14.752438488178953,3.659796067804921,0,0,0,0,0,0,0,0,0,0,0,0,0,0,0,0,
149,7.704826884160909,6.038298107926323,7.375644162718103,6.0550682262890945,2.32209561155868,1.3052778007253494,4.370399630492841,0.4388821973589714,-2.801511598895736,0.7575333022348048,8.264271790656586,5.664626046377059,2.7493684185381966,4.560738087236494,9.284969499764095,5.594017743145788,0,0,0,0,0,0,0,0,0,0,0,0,0,0,0,0,
150,4.6068345204597705,4.172106199334181,5.573546437365721,3.4357744314432637,1.7927079873571188,0.7356738371117189,0.584843868312376,-4.548145412843908,0.9548959551781948,1.3811530058310595,3.666216018338691,0.48460924261725324,2.5222771718113677,2.5360772041910806,7.634580355857889,-2.563431005884683,0,0,0,0,0,0,0,0,0,0,0,0,0,0,0,0,
151,-0.7000745549589595,-1.5946084122707447,-0.5594264198603724,1.1896594229230573,-2.7359495157163423,0.5992699379010702,-0.7999287429606596,-5.777857573612593,2.640026874691639,1.9004057389431708,-1.0015718626728454,-3.4358737066662286,2.4871097666723117,-1.0630866183687253,4.563894946477722,-4.038773511495126,0,0,0,0,0,0,0,0,0,0,0,0,0,0,0,0,
152,3.4101418983727996,0.621021939605825,-0.7753447705686227,4.200578408993877,-2.5276315616345357,0.10943654846222728,0.5229567871592167,-3.0995701190361302,1.833424446372483,1.5844089476967511,-0.9287055859219535,-1.383195990160253,2.2032436172446843,-1.926764041326937,1.5293952822826675,1.6473890084988074,0,0,0,0,0,0,0,0,0,0,0,0,0,0,0,0,
153,7.408139654275104,4.23633605962786,3.6534629773828016,6.593210038346541,-0.08523357651584718,-1.3191160481680413,0.6652376509638032,-3.817747029735685,0.5321552432417751,-0.35837593495368836,-0.8359372416869895,-0.5451912835626658,-0.506084277919113,-1.7031900686401489,-1.9176073748051552,2.619369313679094,0,0,0,0,0,0,0,0,0,0,0,0,0,0,0,0,
154,6.122293136060989,4.542607515393385,5.197990377951356,5.145748776833173,0.4225884376040483,2.5663612997147993,1.7464188783809647,-1.7769146717055122,0.8781420594949214,0.7346955445800423,0.42231950422547193,-3.008353513396828,-1.2477406843334145,-0.318002405104242,-3.706690062445979,-0.044004122439147864,0,0,0,0,0,0,0,0,0,0,0,0,0,0,0,0,
155,-3.5159154677365194,-5.32069150869161,-6.648927193398194,-1.5238576606877245,-7.294217544675149,1.9228129127429696,-3.8920491415754697,-0.5339410690969828,0.43270726089884093,2.1857273360614444,1.5975890305896918,-5.00605622493517,-0.20407716832438716,1.0733277398052152,1.082512261121595,-2.8048580648910715,0,0,0,0,0,0,0,0,0,0,0,0,0,0,0,0,
156,-6.574498435384328,-10.66454343589352,-12.954346499686423,-1.395026110968388,-10.669180461978158,-1.8052142615389215,-7.741451266803665,-2.2991753244736515,-3.2883234869365054,-0.33823193512666094,-2.1007714433579814,-2.486941875619184,-2.0019994096576017,2.925018054688163,2.3884558407113126,-0.5387436768732101,0,0,0,0,0,0,0,0,0,0,0,0,0,0,0,0,
157,1.5689573868075257,-1.3374666231118368,-5.218688248819319,5.219887091515375,-5.328775554854474,0.8605384489821262,-2.8828580780236734,-0.13560709774132818,-3.707739164186208,-2.9556014095431813,-4.658004751577359,0.8655858605458988,-1.6689799543548816,5.350125010355104,1.02385413126623,10.590862856216038,0,0,0,0,0,0,0,0,0,0,0,0,0,0,0,0,
158,4.280644142733479,3.2035270980540105,-1.3270298069167126,5.646952659859437,-3.5702246987921455,3.3677624123244243,2.1971570622876015,3.6361160484874375,0.5175056562321743,-2.2743842157759318,-2.3259104700044375,2.0193564836176705,0.9296803741464892,5.041646912277919,-1.1399823013369748,11.158439036076505,0,0,0,0,0,0,0,0,0,0,0,0,0,0,0,0,
159,-1.1039755435547107,-2.3324782967521713,-6.3028557790859026,3.0548781787183827,-6.51420743302684,0.4940516872417646,-0.0037350188946447815,1.18030408593863,0.8172612451056409,-3.5123398836480035,-1.505867446161112,-1.8740610478951751,-0.3525992296532934,1.0917421417659554,-3.7073556994895824,0.08825342225659227,0,0,0,0,0,0,0,0,0,0,0,0,0,0,0,0,
160,1.0393490735964548,2.2831646586284933,-6.5776815934314214,6.656537539690589,-2.0540815460608712,2.9302323740168674,-4.596233918396834,1.7634509301297712,-1.0494906109798308,-5.423819534650036,-7.098561577477817,-4.822725583522413,-3.0470414796487546,-0.6555685576916801,-2.6460786361965347,0.5072880092089918,0,0,0,0,0,0,0,0,0,0,0,0,0,0,0,0,
161,5.116086463558474,7.550257233442416,-4.912160735376354,8.25226914428275,2.4916440088913205,6.64865629891608,-5.080654653054189,6.391773703150676,1.218205768757727,-1.0341102859346378,-10.204374408065753,2.815717429626801,-2.8882493621657446,4.706658743400006,-2.8028146275905925,8.233149572352094,0,0,0,0,0,0,0,0,0,0,0,0,0,0,0,0,
162,2.831650294896818,1.8881509312852174,-7.4866332540351195,7.909183152435233,-0.7650502592305131,4.071167948784279,-3.00247061497447,5.302369513094405,2.6246835883549977,1.6257649355684691,-7.48373616116195,5.1511125151217385,-1.3876051155629199,7.765651980153301,-0.5048191821744723,6.805487267885862,0,0,0,0,0,0,0,0,0,0,0,0,0,0,0,0,
163,-0.08665656376671649,-3.4752696244741443,-8.646237720308424,4.7981925146971705,-5.236489865389622,-0.3010073877704258,-5.619433438691971,-0.020005896210879115,-0.7157255137363308,-2.241751163948649,-8.080488756167902,-2.6346498077755456,-0.6660843017411437,3.5448303903545764,3.543630930752961,-2.130145872779323,0,0,0,0,0,0,0,0,0,0,0,0,0,0,0,0,
164,4.252135013859846,1.1251223170645765,-2.9344940304122815,1.1806184707411198,-2.4349383925256447,-0.060717924535989454,-4.56514843366045,-1.6909444552801247,-4.067734795288416,-3.3368843398086483,-9.317798362925984,-0.5546475639228987,-0.9663427793646662,3.7119430368769457,0.8651280226422813,2.7073867144014088,0,0,0,0,0,0,0,0,0,0,0,0,0,0,0,0,
165,8.428374586138448,4.968005225453455,1.7682597774454827,2.7240332298237764,2.4228268399880575,1.3404413121034136,-0.07775421988437614,-1.778104737475454,-3.491434915432478,-1.4705650672095771,-3.645702666473376,2.495843114284682,1.8386653375146338,5.731064055581712,3.5483524341000674,9.049624230445566,0,0,0,0,0,0,0,0,0,0,0,0,0,0,0,0,
166,5.1882768756006845,-0.5999133277937485,1.5052678574545206,1.090659060954027,1.5273596913327214,0.4249762768891938,-0.47616380747505094,-3.3057626505962427,2.7673822770979797,-2.1016457336330063,0.5413382232225388,-3.8854450302072934,5.332051944230798,1.2969121558084424,5.335206176479048,-3.720508249528457,0,0,0,0,0,0,0,0,0,0,0,0,0,0,0,0,
167,3.6360081948828693,-2.8738227598062025,2.9843174567289132,-1.4165133521125295,0.7855417153394804,-0.22019464694165158,-0.9880584751184394,-4.656622481742668,4.507104688688003,-1.1489057530407507,0.6600317781560463,-1.256126733104665,5.855091078200772,2.1039549007510345,0.02455165115630109,-7.068648840642581,0,0,0,0,0,0,0,0,0,0,0,0,0,0,0,0,
168,7.0626035841387775,0.8820741476566099,4.768273839774231,-0.6100580022035764,3.4160588653586785,-0.7249984826598919,-0.8646490132804274,-6.125295100638942,0.6989113028545546,-1.5245528351517805,0.7718561818617218,1.058639766701475,5.705232847464842,4.703079113240406,5.359912352766017,3.396481638154281,0,0,0,0,0,0,0,0,0,0,0,0,0,0,0,0,
169,5.072423959688599,-1.3975571163936706,1.3719501117772452,-4.629182716570789,2.1325993875576614,-2.245652941502449,-2.8819087436884274,-8.618817143811977,-1.728758783766736,-2.8149788300827367,-0.5904060696307738,-2.782483546240826,4.295313301701313,2.089636368986106,5.2792530522350845,1.203073972807342,0,0,0,0,0,0,0,0,0,0,0,0,0,0,0,0,
170,3.0865127625959587,-2.929038616247958,2.1367700210940015,-3.4025236804426626,2.9122608907063636,1.0221337768226206,-0.07924995744952668,-7.653099845991875,0.6189122165504131,-1.2227500934047129,-3.014854442913716,-1.43006014569022,0.9089813809954492,0.8134519988895477,-7.3827925335776925,-4.804687330944997,0,0,0,0,0,0,0,0,0,0,0,0,0,0,0,0,
171,7.4377520390944625,0.8653582538353959,7.481783362794346,3.8009424363498283,6.980806356667671,5.08228279577893,4.224230465182615,-2.873519154031591,1.8635604793541916,0.8954757991929654,-2.8184984708839877,2.1561891234167803,0.36939281678770186,1.9027178282907755,-7.116755470740429,-5.582175602179898,0,0,0,0,0,0,0,0,0,0,0,0,0,0,0,0,
172,8.643450819164457,2.7889814344443096,6.222071668132443,3.7962799254615476,6.46496682837649,2.7917052824449513,0.6812704404006524,1.278656845692204,0.9038976834620911,2.569092369019451,-1.5437496637171009,4.885584191269473,0.8373465918389016,3.267914829683768,-3.1046138024940007,-7.471668158050406,0,0,0,0,0,0,0,0,0,0,0,0,0,0,0,0,
173,1.8373641192088144,-0.9649466233960595,0.20987113878085495,-1.0869895826042608,2.600560157293799,-1.9554330329302587,-5.313610973662648,-0.23181756673768206,-0.42346992759323143,3.2426923269365346,-0.5693329940913756,5.547057843089199,2.2056060951852103,4.351227858858259,-1.4688068059573745,-11.943358695699235,0,0,0,0,0,0,0,0,0,0,0,0,0,0,0,0,
174,-6.683702690559954,-9.784308519604949,-4.678039504421818,-6.566322618808542,-4.850870501347899,-5.164051600150671,-6.113297813307568,-6.020401828985463,-0.5582079487529441,-0.4484675169141852,0.02311706089533061,-0.9683043174249946,4.590671158033803,1.9016779242108939,5.369209537824673,-12.301623132851315,0,0,0,0,0,0,0,0,0,0,0,0,0,0,0,0,
175,-7.888797646805628,-13.429835649002598,-5.544566766589568,-7.9919881565630675,-6.85443360032329,-4.2016928237676865,-5.193454318229669,-8.229345340147574,-0.9679010637634349,-0.7185386034903729,1.5209606581637853,-1.4378401020340377,6.5400613838956865,3.6025711689877795,10.064210136161623,0.049088601076217486,0,0,0,0,0,0,0,0,0,0,0,0,0,0,0,0,
176,-2.7716552644697146,-9.273871670177115,-2.7934412038469105,-6.419969219340786,0.6304681238166836,-1.935159939254234,-4.8104559734062775,-7.4090816151622505,-0.6563147677059717,0.4160493011631381,-0.7476765477858294,2.7088638649127574,4.079563201672681,5.0290924301556785,5.962963113628636,7.874690394767446,0,0,0,0,0,0,0,0,0,0,0,0,0,0,0,0,
177,4.642014598948776,-2.5599240306890323,2.5984266182527733,-4.030493891720994,4.38306999552691,-0.14000601551143177,1.423060722981333,-4.38545250218759,0.32726267353800687,-1.2169756909315197,-2.3916297857085675,-0.14758028119259237,0.8254110155530228,0.3417458819820425,0.7441005557850691,1.1148206680998438,0,0,0,0,0,0,0,0,0,0,0,0,0,0,0,0,
178,7.64894904407582,0.6094772936145887,6.524744572508823,1.1665271675620517,2.599508673257219,1.6134405211756473,7.44552759773245,-0.2668282019907906,3.127145547208128,-1.232513600019586,1.5652802368447798,-1.4074048638253855,2.3694838561286193,-0.5407283288208555,0.9302086934383826,3.143543980950705,0,0,0,0,0,0,0,0,0,0,0,0,0,0,0,0,
179,5.73327770277308,-0.041741876070886974,9.972223947055681,4.364510729638724,4.216561073147247,2.7900425309432393,9.089600792815006,3.3224390398721226,5.247816060404666,-0.8987880627471125,5.286430114172962,4.479653222672592,5.406032256404618,1.8724669787101602,3.2081054143776226,9.949591674696958,0,0,0,0,0,0,0,0,0,0,0,0,0,0,0,0,
180,3.0292874967159804,-2.1476355172393085,11.244821075690751,0.2871113609379847,4.84587759357602,1.97199126810564,8.645187402133288,5.653824603328999,4.7455782087634475,-2.3401865078247823,7.941086172622274,5.55404631610811,6.112523864135822,1.198753076589547,5.450316059871163,7.635308186531585,0,0,0,0,0,0,0,0,0,0,0,0,0,0,0,0,
181,0.14533130042443076,-3.562181460172539,4.873209781846725,-1.7272969528659559,1.5980640075648722,0.7980932091443691,5.498705024660552,6.297838593180913,3.463602044620707,-2.609787525565636,8.588147315885479,2.928944832613041,5.0816046857199275,1.0214000087602102,4.587473003970349,2.854266426010284,0,0,0,0,0,0,0,0,0,0,0,0,0,0,0,0,
182,-2.7263505951370917,-2.187021920572903,-1.4236104509220127,3.7260062467473745,-3.163913792701379,0.06892515919598452,2.8438639849319287,6.6895880720395695,3.7509342005155375,-2.0328941585622218,5.602152358515397,2.56581214228941,3.9207809555965234,1.490296622078553,0.19272980839181386,-4.324052383710825,0,0,0,0,0,0,0,0,0,0,0,0,0,0,0,0,
183,1.0434338925427937,2.260192044823299,4.077083136278503,7.29045169774578,-1.5722414222465204,1.3368745743086947,8.384304162863856,8.125941795519054,4.9881038318290365,-0.7880286177877096,4.807801901234967,4.1233868107598255,3.7321651920487255,4.154991902255446,-2.1308914205327767,-3.8195800577389463,0,0,0,0,0,0,0,0,0,0,0,0,0,0,0,0,
184,5.318714547548524,0.22619352552659677,10.402249563226803,2.3325632975651303,4.030796672782415,1.2153772921014934,14.043778779303267,6.550312418088353,5.547320027792338,-1.1815443756412165,8.418392221797255,6.7426855443452425,4.3014905178112315,7.783402377554701,1.6314654789721317,8.415882167014363,0,0,0,0,0,0,0,0,0,0,0,0,0,0,0,0,
185,4.125936034977457,-5.723550897378203,9.719825171471406,-2.1641937258743056,3.2491211663974866,-1.2287146679421355,13.632520460023429,4.180646196390079,6.181218366994955,-4.130114514543607,11.331720941581239,5.502577327801404,5.914964870241057,5.035715073494359,6.191309182076196,9.717127806303083,0,0,0,0,0,0,0,0,0,0,0,0,0,0,0,0,
186,-3.583126286097837,-9.82932664703064,1.348935759858982,-7.152202114570869,-7.379386881247207,-6.236349683770634,10.19611011020993,1.1149871818027677,4.793479705127183,-6.369294408302771,11.202804734783669,1.6524674863440367,7.184919140374959,0.27818431572758584,6.682096885219508,3.3384001362940197,0,0,0,0,0,0,0,0,0,0,0,0,0,0,0,0,
187,-6.739601239811925,-6.5854692896042195,-2.973080771894729,-3.4068226773723467,-9.55358200873065,-5.1427464939990415,10.184331965606262,1.692443097712335,1.6518450919732004,-6.824329766404361,8.54139249482624,-0.7059979164764627,5.985542124774838,-1.0098416228796339,6.241478459795907,6.152685304866843,0,0,0,0,0,0,0,0,0,0,0,0,0,0,0,0,
188,-3.0624344719075935,-1.561223903557952,0.4240995047148459,6.046219226382455,-0.6422917032072348,0.05351417363337774,7.872008998639291,4.168296668246612,1.4110147430005355,-4.272155674170435,4.5589024966456435,-2.4753235383542886,3.5246231664813763,-2.876223869184841,-0.29330325013884107,2.4146886140738033,0,0,0,0,0,0,0,0,0,0,0,0,0,0,0,0,
189,-1.8890136191899192,-1.4424460701578816,-1.4563785705811458,4.952197077595045,0.46530512092319576,0.8888306102833212,2.2151538536484914,2.5825215978066502,3.7641542304467492,-2.0417784823419964,2.246330787871358,-4.60909262921696,1.7991114094802185,-4.948650721612793,-5.252787431728741,-5.952022889546615,0,0,0,0,0,0,0,0,0,0,0,0,0,0,0,0,
190,-4.076149108400681,-2.319525302966974,-6.6509120184846084,3.4469470170965493,-6.692749107117034,1.405427528586304,-0.9043177323390075,2.938766086237856,0.6350140816350205,0.5793025259763738,2.6805022891401293,-2.2616117691258495,1.3294616855935928,-0.7990974400972988,-0.5844577562249427,-3.644856682895142,0,0,0,0,0,0,0,0,0,0,0,0,0,0,0,0,
191,-3.871560611896708,-2.6986372255388638,-4.020975845543713,6.199018690008188,-7.44889590673297,2.153088615835621,1.0764866071945214,7.738538015745409,-2.714863586791793,4.576504121526867,4.090280202626211,4.499343132578474,1.668088320763303,5.343352391588738,0.8487104000490078,-0.7410671805714841,0,0,0,0,0,0,0,0,0,0,0,0,0,0,0,0,
192,-5.971819310954906,-7.4752275459593704,-0.27968124928893445,0.5089203069294186,-5.924413443566117,-3.354643959396057,5.3194645696453335,6.037756517931051,-1.3258943871286704,4.764764908710035,8.326991985156106,9.739173718330747,4.509836216130786,9.089227963693844,2.8048524900641283,1.9072506753617482,0,0,0,0,0,0,0,0,0,0,0,0,0,0,0,0,
193,-10.89253305133299,-11.662229854883272,-0.20607532433016473,-6.841266806232085,-7.670267611666532,-8.211942072071341,6.387451180890302,-3.047066864720982,-1.0200744327970312,-0.13400921659527398,8.849247561445296,7.7435507669735415,4.222858065978812,9.33865923082827,3.5354918016072077,9.888689547502219,0,0,0,0,0,0,0,0,0,0,0,0,0,0,0,0,
194,-8.370404287300623,-8.129192864441222,0.0431127057112235,-4.975878697400141,-6.344403121595512,-5.232371799584065,7.481718379581892,-8.333242094630954,-3.099814198468138,-1.14514491258943,7.670684703843079,5.0269893132045524,2.9289589405449377,7.300858963860179,0.7713256730001632,10.693984972505204,0,0,0,0,0,0,0,0,0,0,0,0,0,0,0,0,
195,-2.292978461174414,-4.5640823859096855,0.08374121511037913,-2.9803796009131247,-3.6110921440982082,-3.3581515359293306,8.940943512508262,-9.108801491645615,-1.8654382753854577,1.6331582463779597,10.12149582958589,4.132012450908789,5.059351347022201,4.3984662260696155,5.097554588817388,4.723207732117686,0,0,0,0,0,0,0,0,0,0,0,0,0,0,0,0,
196,-1.381635566730182,-6.676053385647734,-0.03688362449275928,-6.534569596402648,-2.1581813427803525,-6.013145792544535,2.7572727437533047,-11.584545286648343,-3.1831262230859068,1.5139765113038592,7.959067703664683,1.3832559988466926,5.084955189993309,0.7873559366175868,10.18015565047309,0.8830183791483321,0,0,0,0,0,0,0,0,0,0,0,0,0,0,0,0,
197,-3.0160113685787024,-8.85355612347071,-1.1292216616594288,-7.542580045113482,-1.6214382105408731,-6.743590950305617,-2.5484807876473354,-13.954074767820678,-3.769615541834696,-0.9357786985559713,2.205210065825817,-3.0954903377091796,3.667899626573771,-2.609972523711015,9.377014921484182,-0.23082323825351825,0,0,0,0,0,0,0,0,0,0,0,0,0,0,0,0,
198,-5.618907579953216,-9.222157070874317,-2.139915765443746,-7.28894883280482,-3.8391825472131274,-7.352303719605757,0.055107147035684534,-14.430489910618434,-2.545555661791248,-0.6887113407759955,1.5152966447783491,-2.3684614982169663,4.749508705099032,-2.4824325020137366,3.3767135776628407,-3.517242469306443,0,0,0,0,0,0,0,0,0,0,0,0,0,0,0,0,
199,-4.333226552371343,-7.545603724524767,0.1316078704139727,-7.288322356408571,-4.210516979617324,-6.260883914511908,-0.2066320295137558,-11.891254432364455,-2.8655979101898055,-0.6623011120371771,0.9356164333193497,0.9598823959505651,3.168842092106047,-1.7637680566866756,-5.4850911424567865,-6.079083042710634,0,0,0,0,0,0,0,0,0,0,0,0,0,0,0,0,
200,3.6476591222317722,-1.8745666501522749,4.977934653480034,-1.8266934883371846,2.7459007885352236,0.4345903728260083,-0.01386094980045982,-7.006315653816557,-2.8032768780702355,0.37980482679184036,1.2087616007340678,4.678894806220491,2.7804644588532774,1.7138098726708293,1.249436756596694,3.983258426298802,0,0,0,0,0,0,0,0,0,0,0,0,0,0,0,0,
201,9.8183037637274,3.6761766751768903,12.92075922133526,3.685551828071766,12.319089829645563,4.638339361852246,7.626496669492198,-4.749976505813407,1.65158399831388,2.6764859536804444,5.154268669300823,7.64323965513864,3.7339584011672162,5.697283877597959,9.27800129709822,12.576996811680873,0,0,0,0,0,0,0,0,0,0,0,0,0,0,0,0,
202,11.314824830453858,5.408865688732533,20.088640696317185,4.141595353329535,13.680881246718329,3.3507991700269457,14.038625094443717,-2.840899058417378,5.179096540602044,2.585464198223158,9.629500404602894,8.243086456301661,3.2051224374212657,4.794826615585819,2.4311539871272405,6.3548757272707945,0,0,0,0,0,0,0,0,0,0,0,0,0,0,0,0,
203,6.057194480062165,0.3243124214431674,16.013446780834727,-0.18339749492064072,3.343245789919294,-1.963778212139374,12.482782591395747,-2.822581634596773,2.559654960421998,-0.33891607908151056,12.874349489709445,8.321162727176935,4.894070103272988,3.4811359204358827,3.841728541677333,6.940625452660715,0,0,0,0,0,0,0,0,0,0,0,0,0,0,0,0,
204,1.6769200530991242,-3.215283731538122,10.767486535135703,-3.4016881230205342,-1.325732772729765,-5.179974457297192,12.235937322173214,-5.650768829395091,0.18847973820145114,-2.688452371969956,13.429113362001743,8.702641927842132,7.006672425292012,3.710295766494646,9.351341738437078,13.570777833133198,0,0,0,0,0,0,0,0,0,0,0,0,0,0,0,0,
205,1.3669218264913496,-2.8170742326733773,11.162012471374695,-5.423249692946982,1.7221680291036705,-5.392266391676969,13.43213863517397,-8.950911032852233,3.079879312057969,-4.773321404490996,12.463016879095019,3.9542459937903054,8.379155588885467,0.6224076921595803,11.805598909673371,8.722283548627967,0,0,0,0,0,0,0,0,0,0,0,0,0,0,0,0,
206,3.6234587763834867,-1.159771372657488,14.568170375080783,-6.076729589640436,5.718037157634328,-4.038249531303862,11.806048696635784,-8.789506616269946,5.544532566891348,-7.462379126064036,10.52689708587091,-3.741881111121401,8.42963445241061,-4.246910850030083,13.733771803127475,0.01921978864174889,0,0,0,0,0,0,0,0,0,0,0,0,0,0,0,0,
207,5.817122357293627,0.733108593473446,15.163716366445229,-4.507901251319765,7.928591157838099,-1.0290333359301371,7.939657028700111,-5.24846041092367,7.574581807709436,-6.771300422443083,5.099461120233471,-4.520612300754358,3.9028898992465173,-4.984352906684357,1.519548242871256,-1.8174181000169831,0,0,0,0,0,0,0,0,0,0,0,0,0,0,0,0,
208,6.140747711106371,1.6674460851052402,11.30778142376083,-2.1729225842975666,5.988969598009092,1.328541465573494,7.195513492859035,-3.9538793633315947,7.313466381144806,-3.2354758462313455,3.92768838313647,0.8469684482303848,2.7894196011676087,-0.17372732657342027,0.6798348438459527,5.764663737433665,0,0,0,0,0,0,0,0,0,0,0,0,0,0,0,0,
209,6.551206083564836,1.5659600000640523,11.662208526026006,-1.4760187782498804,4.417788925407621,1.4437183238972153,9.01129595040858,-4.51755937697331,3.728146733453144,-3.15964321381734,7.95498560224577,0.37660672197739586,3.8855435265337874,0.551169011360173,10.986298586596824,7.34042490730706,0,0,0,0,0,0,0,0,0,0,0,0,0,0,0,0,
210,5.52173732658558,1.4147818071107636,13.378715112673675,-0.654013811540537,6.238280957290897,3.044674867646499,7.644982800433745,-1.1485392070638198,4.616525539802993,-2.414452748973126,6.603610988703515,-1.6770422758776817,0.47662549603299453,-2.826424143629005,-0.0219034603463939,-0.4959035777282921,0,0,0,0,0,0,0,0,0,0,0,0,0,0,0,0,
211,0.6008702897945923,-1.042181575885806,6.689358951140626,1.035357186471849,3.141273956767421,3.6984416890045466,3.490952793332049,0.10486441723887907,3.834516338615771,1.4240900759974835,3.4491718141101018,4.00854543250334,-0.2909821334570495,0.32753743500312993,-4.683284404548701,4.8506867347064855,0,0,0,0,0,0,0,0,0,0,0,0,0,0,0,0,
212,2.5321266623015717,1.0313543669481646,5.073689085682798,2.885485189161475,0.9952028043337222,5.546865335224339,5.550317952510376,1.6946198294855463,1.4607093967284328,2.561381933136886,4.497763861836418,4.57381535168156,1.903856437609555,2.858828928004229,4.178428753565022,10.302205753287392,0,0,0,0,0,0,0,0,0,0,0,0,0,0,0,0,
213,0.8565045626634067,-0.1358972339279454,3.8499381396953662,-0.8928604056071734,-1.8508040201699743,3.008201179248111,3.4838005539774066,3.7693300891395083,3.4638510418900808,4.038650609489963,6.071259138485054,5.173951010489958,3.1389741750464424,4.463675724375989,2.865369010831266,9.093090258794422,0,0,0,0,0,0,0,0,0,0,0,0,0,0,0,0,
214,-6.505554748144293,-6.6826848798180425,-1.3659268715509962,-7.072623851557287,-7.81713354289681,-6.213141939872754,-2.472071228642525,-0.9706070053978388,1.225970785987343,2.6501521567289075,3.901551892106262,14.674941207945878,3.727002959085034,9.710534833922281,6.141577849147552,19.08274619086493,0,0,0,0,0,0,0,0,0,0,0,0,0,0,0,0,
215,-5.067038438442687,-6.269810398058045,1.81217656035302,-11.706786501594294,-5.839571888355229,-9.229692767880007,1.1982815330822874,-7.470067150949215,-4.2450296952896736,-3.7613575807382915,4.392461587552788,10.776402197781863,6.063327001712885,7.146027406381535,17.93573064822457,14.355993674337487,0,0,0,0,0,0,0,0,0,0,0,0,0,0,0,0,
216,-2.763258031979813,-4.524256320191142,2.411365312758541,-12.610894272936331,-2.7581302618884536,-4.531598292905837,3.2572597942700483,-8.803041426874525,-3.867822534624196,-4.5762482424067485,5.35376058328827,-0.5298770309417193,5.4119025227598385,0.8816123020178566,10.753547950977023,-0.5077288069232928,0,0,0,0,0,0,0,0,0,0,0,0,0,0,0,0,
217,-8.661739123466994,-9.835335698288596,-7.64961120824627,-11.03367577555715,-9.520191837930398,-3.4796780669847465,-7.580385055754263,-9.517646292834634,-6.667822295412492,1.3875440453090278,-1.4260589134093422,3.292939266394228,0.3504536654540189,2.655573352662998,-6.235830765440127,-0.6503729751649097,0,0,0,0,0,0,0,0,0,0,0,0,0,0,0,0,
218,-12.351023624088626,-11.153062104962494,-10.625087219608794,-11.487110905075582,-12.783247530526609,-5.440958899722453,-14.579447328404562,-10.138237879597813,-8.898704680995621,2.267108329632393,-8.336348788312101,2.920609312548777,-0.31871625147923766,2.443857546629104,-5.5706576201349804,-1.7102425858542247,0,0,0,0,0,0,0,0,0,0,0,0,0,0,0,0,
219,-10.466207556145463,-5.471675104579532,-6.16811103489637,-9.619570763436066,-9.539934240706614,-4.205308207121284,-12.198646509174523,-6.345484791345811,-7.7966585428733595,0.4693082752777116,-6.317305674251706,0.9661117357169786,2.7165865442600037,1.5889396230998685,-0.13433009838675503,0.3563935118845265,0,0,0,0,0,0,0,0,0,0,0,0,0,0,0,0,
220,-7.789190469039113,-1.5428541806115987,-6.400605132610153,-2.6429523023689114,-7.5413105608657816,0.5066992549455449,-11.06707690684837,-1.0904782930196717,-7.6746986702661815,2.220722152981253,-2.403277623232661,7.644262179260096,2.0104824315773016,3.9060642556444307,-2.882495646302168,4.869763521691217,0,0,0,0,0,0,0,0,0,0,0,0,0,0,0,0,
221,-4.914619057822051,-0.36078063289220097,-6.904909599085045,0.3156186473121494,-4.527607188256724,3.4034557515808217,-8.773603194070304,-0.5186688439754548,-6.68453069698414,5.507827487041823,-1.6054182591440096,10.23703356021592,2.2617903560648145,4.993969872278058,-3.4357201991204036,-0.7678143166568345,0,0,0,0,0,0,0,0,0,0,0,0,0,0,0,0,
222,-3.768586722162482,0.04271819392180021,-5.408403516366192,-2.7645766296956538,-3.753037085042621,1.2782733575906775,-7.308550452505912,-2.265438522642661,-5.118643997105323,5.468957235413868,-1.850208462775715,7.897822455735046,4.17583187762154,5.440327361550672,-1.819786244802664,1.7653559043321962,0,0,0,0,0,0,0,0,0,0,0,0,0,0,0,0,
223,-2.6319536291854604,0.827168793490614,-5.314368271811858,-2.75327258317823,-5.92264471349948,-0.7047491490646678,-9.452087598188172,-1.0912873997901755,-7.785149666304413,5.172105114427794,-0.5383428588979413,10.286928239382803,6.066345278210115,7.431080126216042,0.5283459891397051,8.306543704127366,0,0,0,0,0,0,0,0,0,0,0,0,0,0,0,0,
224,-1.768327047485272,-0.5911331381638973,-6.510678599971939,-1.9888352184981386,-6.92571038407857,-0.8365862073882511,-7.571142823860654,1.3767651574009676,-8.469560560760524,4.818422963865398,0.21844765089001328,12.559579372354577,6.23130307768999,6.924618916283272,0.25495076572825326,3.210599357240854,0,0,0,0,0,0,0,0,0,0,0,0,0,0,0,0,
225,-4.4368945362806755,-3.9218413214609313,-8.601728926099454,-3.576803527320905,-7.618725896232206,-1.174924063956425,-3.6336248018491943,2.759528635608987,-7.26302345065154,4.570928535281816,0.18532493946903017,11.996323213081489,4.469999942275903,5.679538689842278,-0.74157439677934,0.1900570959080028,0,0,0,0,0,0,0,0,0,0,0,0,0,0,0,0,
226,-2.13063441305124,0.3094487813600324,-6.336690003506192,-0.12902194071691042,-4.539139566801069,-0.48409590369654154,-2.1684060198353166,4.216527806142693,-6.6320600380448305,5.482537334971136,1.623530442393103,13.14644501570875,3.675789099768302,7.835032320250897,7.436436725634087,9.32602165077525,0,0,0,0,0,0,0,0,0,0,0,0,0,0,0,0,
227,9.169993268715572,12.089982357272532,2.086854179879765,7.538230917820428,4.030771583754884,4.43567759834221,-1.1602828444067228,8.654521494588778,-5.083763267808365,5.588367754144187,4.261358843438428,13.66270311379822,4.299418348298024,8.914957692371786,14.095899982605221,13.947824763775408,0,0,0,0,0,0,0,0,0,0,0,0,0,0,0,0,
228,7.780833493036013,10.921215847506147,-0.6000793699945319,6.338381090735581,3.2730402399349714,6.054304817570042,-4.44599515911581,8.724397674990342,-1.840705658093718,3.950220052786122,2.3035286788933753,8.50589398018214,3.649076361910378,4.431728684034669,5.5274427224459295,4.550593585832143,0,0,0,0,0,0,0,0,0,0,0,0,0,0,0,0,
229,-1.7323482981178984,3.154276549588772,-7.611970958717308,2.172017611262561,-1.7022298913187939,3.53959034261257,-3.477898833432306,5.408624106334614,0.9396726044819559,2.9285358643632566,-0.7885658208128881,5.177023383945862,3.457121821636619,0.9873904861641165,-1.0541076360593387,0.6612769151926656,0,0,0,0,0,0,0,0,0,0,0,0,0,0,0,0,
230,-0.895554128389989,4.96557457551603,-3.7363162947817017,3.4015004563170237,1.2586097446199744,2.480436993518083,1.009725150165238,6.157261976640285,2.910756407578944,1.5890159182507837,0.3092496647000935,3.8975018332330222,3.1557368824423726,-1.6565607905312127,-0.5890782568241058,2.374436852955405,0,0,0,0,0,0,0,0,0,0,0,0,0,0,0,0,
231,5.798327713549142,10.279226901086176,3.4217824898511964,6.036784945411242,6.102199971316608,4.133333052652986,2.4413056457371596,6.97731332299373,4.475318596783396,-0.3006383873040477,-0.41066107443627686,0.7315803996786059,1.960874407824285,-5.459751857429154,-3.1748155222616212,-3.633480869735216,0,0,0,0,0,0,0,0,0,0,0,0,0,0,0,0,
232,9.841778666591168,12.191719573667712,8.221929568617227,6.939000326659141,6.0225782629736955,6.2514411235713965,3.976475887276365,5.045556271432254,4.7500797228722575,-1.2891992034192654,-1.7759781105512715,-2.251934605717693,1.2206048786243144,-7.132305468550847,-5.429916960540719,-9.513726151350397,0,0,0,0,0,0,0,0,0,0,0,0,0,0,0,0,
233,10.492010469134911,11.43598858505625,10.934566759546357,6.882997329199277,5.941466600046411,6.608671526458544,5.476483898245462,5.468935566126149,5.232841814690389,-0.9487227186316645,-1.7137457794279953,-2.2545012931632726,-0.4670077695068784,-5.967438952272168,-6.575340716606522,-6.1661768916791075,0,0,0,0,0,0,0,0,0,0,0,0,0,0,0,0,
234,3.3545637388565837,3.2171075997149643,5.079928145909754,1.7899083239964355,2.182927105072814,1.486211879064328,6.411395053354255,6.180317415917962,5.1525536163819226,0.1452977101385926,-2.890886536304855,1.374476307684958,-1.9236826941741825,-1.0454349774866358,-2.8390387499835654,2.467951759586576,0,0,0,0,0,0,0,0,0,0,0,0,0,0,0,0,
235,-0.2806222386925086,-0.15606276056517743,0.2282577978334288,-2.50852647060605,-2.8357966552417295,-0.8417985110707349,7.815428927184421,8.9346729946014,1.6800069334267818,0.5885714274674712,-2.208736228495553,1.6580392814149008,-1.6658105522718785,2.6273269142045805,2.8025527858308124,4.258676097895453,0,0,0,0,0,0,0,0,0,0,0,0,0,0,0,0,
236,3.6461871151575806,5.159270058861807,1.2328565656687331,-0.02592921592781039,-1.1281824905693085,3.4334231431352578,0.00996394409370538,10.762191038834583,-0.3052406857698884,1.5902623298717344,-2.907927352447608,1.4255680264634236,-1.8478796265161037,2.1741343335698957,0.32363127528981295,4.7842398762367395,0,0,0,0,0,0,0,0,0,0,0,0,0,0,0,0,
237,4.056171148680484,4.346346778128087,2.4358998625387827,5.459513696813666,2.53275236592102,6.501006856043784,-4.315206864093259,7.761759053672304,4.625879640985104,4.441966973583106,-6.055627761888033,3.0051526939814295,-1.3483912585341002,0.6657482402778783,1.2644981898280534,5.2561059087603965,0,0,0,0,0,0,0,0,0,0,0,0,0,0,0,0,
238,-2.7579521864951033,-4.727305029888862,0.2423500791272728,2.333904406396977,-2.686452824797609,1.0632703849327072,-1.3725033374122013,4.598193832538755,5.458299867314807,6.02874081465896,-3.883559465222895,2.0071002601925585,1.7270527685609878,0.705372131607632,9.212057359948211,-1.159525053044522,0,0,0,0,0,0,0,0,0,0,0,0,0,0,0,0,
239,-6.711938475250194,-8.48202231144129,-3.770075771470456,-4.50433044077807,-10.761188798612675,-6.229872415075583,-4.6989801364521755,3.1242233031987103,-0.9812904499565889,1.8677920867283575,-2.8558148483684604,1.8813676188515842,1.899020102804883,2.7382889721033195,6.959252393781476,1.8496491663415178,0,0,0,0,0,0,0,0,0,0,0,0,0,0,0,0,
240,-7.655307977598099,-8.146333431896121,-7.732712163023599,-6.404805986994694,-14.594946212697165,-8.638565719414068,-8.563031186117435,-2.534582518454692,-6.644378869010396,-2.6277948229438692,-5.917272433880349,0.43606746297659527,-0.13143049665491446,2.598107708698663,-0.4478583305252428,0.3991356281100309,0,0,0,0,0,0,0,0,0,0,0,0,0,0,0,0,
241,-12.488477471403954,-12.805146127144841,-10.14224405209367,-11.969198291776507,-14.966349831116233,-9.58741084240399,-10.829090240513818,-9.177438659724395,-7.4393870321809175,-4.402822002537675,-9.345740995095355,-5.5936870591607,-2.219855311861423,-1.2130374179004093,-2.490069397474585,-9.568798742395625,0,0,0,0,0,0,0,0,0,0,0,0,0,0,0,0,
242,-16.310223483276303,-18.120214692880552,-9.499826139610043,-17.80415459780407,-13.993105079525435,-13.172163308329246,-10.005407237508834,-10.7447150458237,-6.647823680905859,-4.739855087410206,-10.203615071966198,-6.8907847267660145,-2.887162053528435,-2.5294705993852915,-2.344105721501478,-7.662240439324314,0,0,0,0,0,0,0,0,0,0,0,0,0,0,0,0,
243,-9.512245623868736,-13.500578392583165,-5.066008858477474,-12.394790698866437,-12.151738410951673,-15.426309870289487,1.1488540977077122,-9.033290819451512,-3.769047197221397,-5.775106703744413,-4.11672397228935,-5.989784364997348,-0.11891527269359159,-4.108168087679559,-2.923358852556234,-6.452408004015805,0,0,0,0,0,0,0,0,0,0,0,0,0,0,0,0,
244,-2.585736970807787,-5.270147378900205,-1.9084416441195913,-7.0099076236530635,-9.906517706764632,-12.749744454037035,4.6920143216657095,-7.176944907308126,-2.608293221542681,-6.6064668453093915,4.585091892587897,-4.746187217835001,3.2374402241292017,-5.716377794046743,-0.19184190298293657,-5.82271735597679,0,0,0,0,0,0,0,0,0,0,0,0,0,0,0,0,
245,-5.5969726345918644,-5.017736492808879,-3.678804109440449,-6.698863661892759,-8.058560513592639,-7.6045711088798384,-1.6135111642595064,-4.085578224010199,-2.4294831023331795,-4.457832470858229,4.749103221296622,-4.709004905666021,2.343379476812025,-5.8269132762818145,3.907589566652213,-3.259021190647794,0,0,0,0,0,0,0,0,0,0,0,0,0,0,0,0,
246,-3.640120428478781,-4.671120417267048,-3.0460844846597865,-3.557235249806709,-5.200380768377443,-3.8349651803366243,-1.488640774124832,0.15198342528359632,-2.0616080202501053,1.6845428523926742,0.3971610320078902,-4.038615166090025,0.01022291957737309,-4.52773158830081,0.8559929347550757,-9.54008703923547,0,0,0,0,0,0,0,0,0,0,0,0,0,0,0,0,
247,3.0833291875605795,0.11438013696560745,0.3648906791121078,-1.9160912175755271,-3.5783460009443644,-5.102867870907829,-4.1754474917411954,-0.15352741539543047,-2.8420240477908365,2.3022150652563056,-1.346049549722732,-2.0275318132194187,-1.410748937961884,-2.77690576357886,0.19148842426883306,-9.940378384265852,0,0,0,0,0,0,0,0,0,0,0,0,0,0,0,0,
248,3.149204109046778,3.2022458489693406,0.639481259148738,0.2822516341410477,-3.7937579004242536,-4.9513453991880425,-7.916282750398182,-0.8909434293686189,-5.861729361185141,-1.6332549221266532,-1.5577037070909192,1.3054167342721001,-1.4468657050667595,-1.4622752654467952,6.069948293168164,-4.753033314745369,0,0,0,0,0,0,0,0,0,0,0,0,0,0,0,0,
249,-2.0375972039889803,0.30119884425590726,-3.2361243591555677,0.9806921931881476,-6.298634849732906,-1.3052708804159465,-6.58244796267978,1.3608384879496356,-6.109026499614714,0.5669101063750439,-3.014505297096571,5.613726241852746,-3.27499090489259,0.13042692335549333,-1.2601733744696748,-4.153168662929657,0,0,0,0,0,0,0,0,0,0,0,0,0,0,0,0,
250,-3.743676132310469,-4.415048971139839,-3.271125821694298,-2.4201859356558657,-7.327109305282548,-1.440717800587393,-2.860882575651374,0.4174699286061667,-5.260201936000476,4.669578853690471,-3.118786254753852,5.75023014892156,-4.821322758499097,2.2320586870226986,-8.183030014194962,-2.0188897309192466,0,0,0,0,0,0,0,0,0,0,0,0,0,0,0,0,
251,2.175990819852885,-2.501416454139445,3.8859666816946827,0.07877388668011065,-2.949284277062631,-3.8477059068282387,5.1371622195594,-1.1783992063940048,-4.374999853174771,1.3931831895616504,1.5257112962705115,-0.06655367220189046,-2.154120964510635,0.31436971383654644,-0.5885836017400403,-2.795710053699487,0,0,0,0,0,0,0,0,0,0,0,0,0,0,0,0,
252,6.093719077085751,3.3872497367736685,7.726153704755646,3.3198376472519584,2.0207586035545972,-2.0379298354747704,5.119834445049577,0.5009182152128204,-1.3519910851569144,-1.9556897104333646,4.95910258430172,-2.9765455242593895,0.9539500097207636,-3.1193355636749738,5.305766331101115,-7.884990236604924,0,0,0,0,0,0,0,0,0,0,0,0,0,0,0,0,
253,5.497303890468828,5.8398547594843535,6.740829742932576,3.0672888852960654,5.335970515702115,2.868742262174294,-2.631592481399352,-0.17123059223050063,3.423663823749955,-0.9476642914663689,-2.9781242726170056,-3.224147138461955,-1.7521999029744908,-5.624449752476512,-1.2443522108281417,-9.31021511520127,0,0,0,0,0,0,0,0,0,0,0,0,0,0,0,0,
254,10.058302022763712,8.55542362398792,8.76962671274714,6.594244448380863,9.404190494433337,5.761909443862095,-1.7804613126231317,-2.930959477293129,6.29069538346517,-1.7250899214648143,-11.853571627625012,-9.149158023039735,-5.794098562355819,-10.279053392587496,-10.824478153617882,-7.93459893773581,0,0,0,0,0,0,0,0,0,0,0,0,0,0,0,0,
255,13.460539905573143,10.702106311198563,8.044198061306801,6.30753867622704,9.57579168439473,2.9355151929763537,-1.9466390193372405,-4.269579586750325,4.456338563396656,-6.1361134445013015,-10.36844330025706,-15.94686518347109,-5.32464758915944,-13.035296329355663,-5.472083536801055,-4.706019254213217,0,0,0,0,0,0,0,0,0,0,0,0,0,0,0,0,
256,17.314451489489144,15.74618078990818,9.662338078691079,8.165311388574892,12.094646630809478,5.324911756479878,0.15265706717431726,-0.2399027987897,2.6952987899101117,-6.332570250623668,-8.008512842835465,-11.447218176420137,-4.7994773548214695,-8.326612458670283,-2.160378662634571,-0.7565460649171349,0,0,0,0,0,0,0,0,0,0,0,0,0,0,0,0,
257,17.250461139536938,17.449448923802123,11.555787091217042,12.87122116653056,13.458031463935427,11.250170531890987,5.986323278009706,3.9618940708973938,5.626982086392488,-0.884014089712565,-5.467704195008338,-7.5123206649241325,-4.881457020280287,-4.4827315043606575,-9.43657846540431,-2.071109300113825,0,0,0,0,0,0,0,0,0,0,0,0,0,0,0,0,
258,11.800301555376734,11.841888460094701,9.505416009359138,12.468882572202418,9.500971056591638,11.74044377957798,6.031310940802868,6.504140905587533,6.529680758839135,3.3106357248265823,-1.3015969983349223,-10.030832702734486,-3.002728338748227,-4.247472019287869,-2.120137932443619,-4.290631240075143,0,0,0,0,0,0,0,0,0,0,0,0,0,0,0,0,
259,11.944762703118776,11.080560443140584,9.710270389340884,12.37039608592525,8.372352886452802,9.728211985032729,2.160208957284638,10.087326212405685,2.4884573474064524,4.951038064846344,-4.092705709755691,-3.8295354117767175,-3.812929107927289,0.30576781664699837,5.308929129537795,0.36376739285518056,0,0,0,0,0,0,0,0,0,0,0,0,0,0,0,0,
260,19.511675355644265,20.647181134782876,13.353301794111271,16.370460895738265,15.139723511212587,13.009396199456944,2.548341055929278,13.753533505762917,2.848830433744567,5.741410984699812,-7.545445043874089,4.9100238850889895,-5.8721519057890745,3.990574478679818,-2.9424126374119837,4.099850614223826,0,0,0,0,0,0,0,0,0,0,0,0,0,0,0,0,
261,22.542960995180525,24.33844415858912,14.797070544307555,17.175893581174105,19.867628790570503,17.38553707781579,6.109346895327011,14.537063119476947,8.41664648414853,6.555620074835829,-5.3358709541252125,6.438849329344947,-3.943569048289909,1.882706631112839,-8.667575931731221,0.9956179998979025,0,0,0,0,0,0,0,0,0,0,0,0,0,0,0,0,
262,18.9156868403948,19.009283934861838,12.952786997127614,16.344468501199028,15.948898326637764,16.473101008427612,5.9978208184570025,14.40170666366706,11.666505891974708,7.292929871928095,-5.362402753103325,3.59239822444259,-2.0201398625066176,-1.130049240358062,-9.058371114320266,-3.6627896396118373,0,0,0,0,0,0,0,0,0,0,0,0,0,0,0,0,
263,12.401431797501886,13.624078940211042,7.123253928549452,15.025048452682443,7.881090753746757,10.417181198881709,1.1796087599152885,12.463849335607353,6.0751054575906664,6.7029568263848915,-5.163950001951321,1.3146748453867616,-3.07814545395037,-2.281239569511925,-8.146740280796053,-8.149313297797718,0,0,0,0,0,0,0,0,0,0,0,0,0,0,0,0,
264,10.366017965451443,13.345304172707278,5.291976559470944,14.063307150678067,6.45659342835274,6.89247646411005,2.9669153600306934,9.574408588898553,0.061836858305326814,1.9331675203027743,-1.523191370998859,1.7179941685092501,-4.145956030633144,-2.6395014402180266,-3.2972793049636806,-7.090560661552317,0,0,0,0,0,0,0,0,0,0,0,0,0,0,0,0,
265,12.76043088754491,14.46186754140324,8.359482538067827,13.287836595813854,10.067019288419925,7.443857348824153,7.001876309520256,7.380267411879686,2.0393180874762606,-0.5606191816151522,3.4153152885874007,1.8278183334797973,0.3584601753750718,-2.5951084029515386,4.012956079451435,-6.270506021620669,0,0,0,0,0,0,0,0,0,0,0,0,0,0,0,0,
266,8.433917199944872,7.57033977816392,4.882975778535517,8.19883034579992,6.692085983317476,5.228355448141329,2.439207421511405,5.503471303218671,4.722186329726085,1.0685181755047353,4.829704465102878,-0.8289846030750994,3.7953918633736308,-4.2211308787891255,3.3523833698437357,-11.577148377277563,0,0,0,0,0,0,0,0,0,0,0,0,0,0,0,0,
267,0.5987030887251876,-1.7285588616928464,-2.3179260949299163,1.8173630733536328,-1.245818111550058,1.2173637114025908,-4.61518178417532,4.863894949018523,-2.084352113578106,1.700568313003842,-0.8675137965000275,-0.3837278717052044,-0.10703692260593556,-4.276848689530624,-7.375173325932607,-13.245625638808157,0,0,0,0,0,0,0,0,0,0,0,0,0,0,0,0,
268,0.5324042006371172,-0.11754838752322883,-3.103698197049546,1.628843024258373,-0.9005504620498073,2.6049390970716715,-9.530903553496415,4.064506611567623,-6.69554737716328,2.069600949421826,-8.518033139857963,0.09204651087436844,-3.7025460914569592,-2.342160482923937,-9.529886931452292,-9.107607828740468,0,0,0,0,0,0,0,0,0,0,0,0,0,0,0,0,
269,2.8949892968659015,4.921570453777548,1.0329246875709543,5.334099378793198,5.4453482692828175,6.104084692239923,-8.196746538865668,2.56620268403924,-2.432215381486529,4.832512315218196,-8.05838308136245,1.6824339858371786,-0.9253358633177555,0.9681968439399142,3.688878340334739,-4.977761055526921,0,0,0,0,0,0,0,0,0,0,0,0,0,0,0,0,
270,3.3998203877532234,2.8841107169581903,4.75354801778802,3.5787467905369112,6.11215712497858,3.7543736090780158,-1.0503577136717297,4.267560732061227,2.517484307150923,5.989818514387672,-3.5743503740726226,5.065293310690137,-0.13609104030787478,3.2164316113296962,4.690473391140806,-3.698240849599432,0,0,0,0,0,0,0,0,0,0,0,0,0,0,0,0,
271,3.9035254670882154,0.21349729208681367,4.091486282710818,-0.24224764757549622,1.1046178091069265,-0.2014697930003848,-1.6182216687561919,8.43409747022141,-1.3214246519068737,6.464618191192962,-2.4546579606553287,9.208011558329744,-2.838126014324594,5.3402703798661335,-2.5923025184528257,-2.468593228975053,0,0,0,0,0,0,0,0,0,0,0,0,0,0,0,0,
272,0.7531981247187076,-0.8721716632953758,-1.4840118375480955,-0.26635756853362125,-2.899766036053606,0.21114956645298832,-5.62097532349847,8.589896553974341,-6.832679230382276,6.291920984152753,-4.024588959158866,13.896701163436092,-4.593523994493292,8.264381666936988,-0.36609242751478277,1.7530465683830294,0,0,0,0,0,0,0,0,0,0,0,0,0,0,0,0,
273,-4.823536510376812,-6.552227214652007,-5.620442285472521,-5.244039644045031,-4.173840096660399,-1.604003122581915,-3.3961073248800346,2.5787734071104467,-5.454646226254063,4.3646519555316345,-3.2095422775845126,11.45623576917064,-2.933904570501035,6.683533975190105,-0.08644174480200206,0.8326290698139518,0,0,0,0,0,0,0,0,0,0,0,0,0,0,0,0,
274,-6.769375404597852,-12.129462432809177,-3.426040424619032,-8.87247256447543,-3.9012880583513834,-6.528681027833315,0.9349021525881653,-0.1638759393707545,-1.8584021056441191,0.07844688508889419,-0.49212969635599446,1.4547447160172098,0.1123938779955509,0.2429164048009831,-0.849848149170306,-2.110772977452708,0,0,0,0,0,0,0,0,0,0,0,0,0,0,0,0,
275,-1.6897564967555354,-8.113907076066269,2.671891931795969,-1.7855737351888195,0.13474160841313676,-3.7522844396788173,6.6873661744534445,4.76771252546375,-3.5073765323645802,-2.2822814038137746,1.1004284542158418,0.13017380277962154,0.2697573396907984,-2.0856372403506773,-0.747035818065866,-3.2587457961641757,0,0,0,0,0,0,0,0,0,0,0,0,0,0,0,0,
276,2.224848819688958,-2.593964224757528,2.082945162391539,1.7308272434859475,3.4650667285739587,2.669603028168723,2.408674337366975,4.2569711669684835,-2.828681499796799,-1.3897259897620091,1.6189479114337182,-0.725010094437069,-0.39764877867327497,-2.9282463779202508,0.607326763147829,-8.656988113408655,0,0,0,0,0,0,0,0,0,0,0,0,0,0,0,0,
277,2.7267842834651788,0.6441051231595907,-1.6503890565342658,1.5239534777170576,3.91398378139111,6.195476503124269,-7.492545713559352,0.7905943551152887,2.4911480230139382,-0.7527867607642449,-2.8362928098185165,-7.83783117855247,-0.38495054129261064,-5.034716962510258,4.323405412638337,-10.089398574118984,0,0,0,0,0,0,0,0,0,0,0,0,0,0,0,0,
278,0.9201972888950394,0.6595503010372852,-2.6548738745078424,-0.5578444939663427,1.5473536132159893,4.016622552926037,-6.358661860418309,1.4460413860138601,3.3898490224595363,-1.6526893429294525,-9.12706703414062,-6.651648975071115,-2.9131856903524387,-3.608349794648742,-0.3697803159595061,-1.9983529195166732,0,0,0,0,0,0,0,0,0,0,0,0,0,0,0,0,
279,2.7438521783352883,1.3733008999092817,0.5498307104151792,-1.4685216452710108,2.4426058018517693,2.2197208039800245,0.5095911918084539,3.3349301746276296,0.7532056509994334,-2.58933954989892,-5.383072672948877,-2.8209277226172986,-2.838658631306462,-0.2537261341520214,-0.16860820153715395,4.216659497095904,0,0,0,0,0,0,0,0,0,0,0,0,0,0,0,0,
280,5.1251935218474785,3.5680215075300907,2.474429088061399,1.6326420864872233,6.238563646531816,5.04312603410429,0.5043169125159608,3.0880357688555904,0.8731358279373893,-3.838544999519236,-0.8793184019484244,-6.733587421293173,-2.109577328536666,-0.6802237011821504,3.9776212214780067,-1.4207680841325114,0,0,0,0,0,0,0,0,0,0,0,0,0,0,0,0,
281,0.5321111181627458,2.0299181274902907,-1.9017901228287855,2.7283815840505525,6.514899695699427,6.627584334137424,0.10272987931151079,1.8608718814299507,2.7572049134160608,-3.4957343764471958,-2.732418245843675,-7.808204854977404,-4.548421843979348,-2.2315240919915595,-2.9351678660905236,-10.780632440915955,0,0,0,0,0,0,0,0,0,0,0,0,0,0,0,0,
282,-3.261914897967543,-1.3883487230968825,-5.32436839268955,1.813112806522156,1.4815977610058013,4.132874195623131,1.8324313716611158,5.464193398430631,2.6051469976039385,-0.6542285771316969,-1.8003006522393221,-1.5883918457215458,-4.827882574745608,1.0020982232464632,-7.238190084574107,-7.486344789961198,0,0,0,0,0,0,0,0,0,0,0,0,0,0,0,0,
283,-0.5422833642709293,-1.992842509173606,-1.7183439370445868,1.6028634625247449,-2.379842079013521,2.554078218744884,-0.6958736087966813,12.159294428778303,-1.326187842551164,0.8608035677618702,-0.11181491890820894,5.003623141160432,-3.202634665066533,6.413717809376706,-4.394585716549663,4.644892675624085,0,0,0,0,0,0,0,0,0,0,0,0,0,0,0,0,
284,-3.179017275771109,-3.9220580355250902,-0.5205689228754906,-0.5271838116588867,-1.6065344356223719,1.6736709073096065,-7.321558139975728,9.031727327263717,-2.4922952271228382,0.128378091233742,-0.4450506461706283,2.5438206633127862,-0.7507374120263535,5.270017481688349,-0.13940988894242423,4.512306590937008,0,0,0,0,0,0,0,0,0,0,0,0,0,0,0,0,
285,-1.7571762774039144,-0.8797287391768691,1.5046297692016566,3.253832578397315,5.803587126897671,5.156151921372967,-5.911772994948912,4.370344494307712,1.529519946455423,-0.7220725197033744,-3.7639433678779852,-6.687544112609501,-0.9480310506116894,-1.4110598939229675,-1.1350569029498132,-4.016926196350141,0,0,0,0,0,0,0,0,0,0,0,0,0,0,0,0,
286,3.506017543481068,2.1935540349783516,3.0208493898991655,4.708021344969243,8.042321829056743,6.766217313624814,-2.8233195707296943,3.552102251359937,1.6901133629197886,-0.14593884211069508,-7.676581181752255,-8.464945212734136,-3.7294906124354483,-2.839311359594447,-8.818447951465963,-6.330021899496572,0,0,0,0,0,0,0,0,0,0,0,0,0,0,0,0,
287,-0.37201471508993045,-3.443953708643237,-1.9098100704725642,-3.1557101399843077,0.07308871431913744,1.5498267692280496,-4.7413770488206435,-1.199629541889415,1.11831629997819,-1.7638065098346374,-3.989178366501477,-10.7489985759198,-1.0663803575996482,-2.4147180407865534,-6.941970721480459,-9.386895168925317,0,0,0,0,0,0,0,0,0,0,0,0,0,0,0,0,
288,-4.908652645804247,-9.715650611593716,-4.510032220214665,-8.309151546923095,-4.35711495644232,-1.5217226843664449,-2.77330699618515,-6.646609866539512,-0.4051590727354579,-4.6636802681425,3.2483794111585667,-15.856046328246876,3.812858509482666,-3.40185323622768,2.3210270199815923,-11.067358337428686,0,0,0,0,0,0,0,0,0,0,0,0,0,0,0,0,
289,-4.726363315826056,-10.6389436812454,-0.868786398959795,-9.283277776743654,-0.5610679837824044,-0.9842490339303325,4.098386657748907,-7.850135535629337,-1.036514719896033,-4.237642278273924,5.073394085442857,-14.030233035585852,3.6528405616329707,-1.289439358494647,0.4157100580762503,-6.020689963626648,0,0,0,0,0,0,0,0,0,0,0,0,0,0,0,0,
290,-7.148397969799959,-12.701159119937635,-0.1204698989188202,-11.20574299198201,0.18353360774325012,-4.498567017966739,7.554419550927413,-8.178511841341521,0.7874719124039302,-2.6152511213967387,8.082070983563995,-9.65922115701089,4.6513481879098535,1.773962141094998,-3.8286417580339034,-5.290026253583598,0,0,0,0,0,0,0,0,0,0,0,0,0,0,0,0,
291,-8.847810556939422,-14.97580975805738,-3.489871446377151,-11.97401289089676,-3.221585301817754,-8.68514322673061,2.552958805466446,-8.530543736081803,-1.7517704525268272,-5.115467637100323,10.132848297340196,-8.240139264809287,6.2359279693557355,1.9586062332001717,2.416019172291115,-2.4734762738083482,0,0,0,0,0,0,0,0,0,0,0,0,0,0,0,0,
292,-7.691807904248549,-11.89350998419205,-5.200362712774066,-11.943370852731647,-2.6325936057516515,-6.791430595674065,-5.7981056999293585,-6.23121690678272,-5.199617375084145,-5.507521932079143,7.1382839921532195,-7.63677140660883,6.6055831066782105,1.938159484868848,8.542755598555352,-0.6265651078231009,0,0,0,0,0,0,0,0,0,0,0,0,0,0,0,0,
293,-10.01749148155362,-12.744274866194843,-7.052822328754047,-14.173672962383918,-2.134441508493083,-4.349034312762825,-6.8979309791298675,-2.7943010783946747,-0.9227155988498339,-1.052615247723942,5.759269103966695,-7.990500680427232,7.85514198499844,1.9978138522130067,4.874092055309866,-5.786109307320068,0,0,0,0,0,0,0,0,0,0,0,0,0,0,0,0,
294,-11.741276192833851,-17.31532697710351,-8.420876798104132,-15.131686391150424,-5.181860075813248,-5.723907371255592,-3.9775040955173466,-1.5549704888513816,-1.053526155387047,2.928359469977792,5.001824626951084,-3.2653396394137104,8.259677076543461,4.140007800340868,1.6927366918284932,-3.2577492296485353,0,0,0,0,0,0,0,0,0,0,0,0,0,0,0,0,
295,-6.05967966502547,-11.938269032844062,-4.486570687062226,-9.281774549008745,-4.406168278748339,-4.239649818476352,-3.3841053086807875,0.1933607395643051,-4.726668282086891,2.259118678845873,3.8482262297190672,-0.594514743341513,7.6142860421803675,5.005616690453003,4.037663231931109,-0.10084794894591775,0,0,0,0,0,0,0,0,0,0,0,0,0,0,0,0,
296,-4.1326247361608495,-6.202377221890515,-3.927673513113376,-4.6204874555811415,-2.2776139260782173,-1.5916165784435918,-4.523148431695205,-0.14177267987037112,-6.153260946214573,1.079855479041811,5.800804534132691,-2.5191419849326095,8.3258245712126,3.9872306216304167,8.767267050559822,-1.7989569256443676,0,0,0,0,0,0,0,0,0,0,0,0,0,0,0,0,
297,-8.266053608049305,-7.424129645933164,-6.100117007774401,-6.412203907283882,-0.5468664468654367,-3.00269511143388,-4.496132229756029,-4.602496430868996,-5.379529246060827,-0.024911284442957538,2.490022169990226,-4.6400828274150285,4.687554561796144,1.5985403019106563,5.389468442676982,-4.043086999530589,0,0,0,0,0,0,0,0,0,0,0,0,0,0,0,0,
298,-3.410015915294366,-2.7178788879459432,1.1422243140495567,-4.392113358334527,5.310266381723821,-1.0330765791023993,2.475538012502284,-2.1464958236270633,-1.0912300719802168,-0.46686978120456857,0.8992913584632847,-5.703245759744757,1.4356498171346672,0.3329939949788532,-0.8174527210930798,-7.914343428658498,0,0,0,0,0,0,0,0,0,0,0,0,0,0,0,0,
299,2.025357500436101,2.2469128666458147,4.475801521796072,0.6295126931136252,5.120500141491689,2.401813631657319,6.240207317472908,4.261803309394736,1.5035446164248425,0.7698963792855569,6.396333350132055,-0.29282522226140806,1.9039683110997085,3.414611110640955,1.8583265013513408,0.24894003334245873,0,0,0,0,0,0,0,0,0,0,0,0,0,0,0,0,
300,-1.7142389969704084,-1.266915715862197,-2.017456593658437,0.7880192927672596,0.1080028564377642,1.8425829106993348,0.9726571491874267,2.16361289517981,-1.0539830124410372,1.1878426701997062,6.617597132221525,4.330648873688698,-0.24630635956045188,3.9780448137990163,-0.09674943754299914,2.6680462997154066,0,0,0,0,0,0,0,0,0,0,0,0,0,0,0,0,
301,-6.7173656989231745,-7.193542666939237,-7.149077170250521,-3.4063040141179783,-1.2034185777458077,-0.4244404704833755,-3.5903209987919382,-4.627783209299693,-2.0696689960681063,-2.084094515829557,3.328519229714054,-3.137139426766465,-1.4099016630296157,-0.429166062017023,-2.897920721798826,-7.280448649296346,0,0,0,0,0,0,0,0,0,0,0,0,0,0,0,0,
302,-3.98526048675447,-4.223151870590698,-5.5442603226195075,-4.300229121489778,0.8268243357645417,-1.1518502005913973,-2.4733237375403974,-3.710168693108244,-2.2605472547413044,-5.4856844602226165,1.869929692631569,-7.4012491336591495,0.6467885153957997,-1.2432418976225108,3.0611034477212637,-0.6654977082836062,0,0,0,0,0,0,0,0,0,0,0,0,0,0,0,0,
303,0.3268757938476199,0.7870563705764226,-2.8029526048924964,-3.413983161992661,0.41998294123526136,-1.9495095849326987,-1.9683163119128722,-0.16835388912956262,-1.180315761587707,-6.629101726633355,1.1676274921722687,-5.847170256681871,1.1259208741076137,-2.2631906033088605,2.030908065965587,2.9237879223824734,0,0,0,0,0,0,0,0,0,0,0,0,0,0,0,0,
304,2.261049938772757,0.8286462679875228,-1.1239429090515927,-2.4624727094775807,0.3147396361178778,0.0938379987901925,-0.9212918028411394,-0.19089481121156382,1.5789411241154312,-6.568251759683243,2.088114576888813,-7.9782738354771325,0.5116441157066056,-5.829467667286345,-6.65770995910211,-6.84416375593722,0,0,0,0,0,0,0,0,0,0,0,0,0,0,0,0,
305,3.9051626058871705,2.1500205672143835,1.6733452901207215,-0.6331877467902558,4.501511522465151,3.5064321305240327,0.14625846110781993,-0.08580291400807738,2.462195111275605,-5.116894896991305,1.044095075316683,-10.135896155554974,-1.3818789823580175,-7.665198795102455,-10.35765723052387,-12.14366073631463,0,0,0,0,0,0,0,0,0,0,0,0,0,0,0,0,
306,9.963198801351382,9.56165925717471,9.434313316916118,4.961848220449525,12.557192427628848,7.045909853986174,2.314591074702193,3.8877071099756435,3.4488042457806642,-3.248475791321468,-1.0915016412916714,-10.495199066696472,-2.855982768654954,-8.028942390582408,-2.8115173154459114,-14.917326574400246,0,0,0,0,0,0,0,0,0,0,0,0,0,0,0,0,
307,14.459157882221731,12.532554285874383,13.812519977735313,7.230604488386426,14.044791829904447,8.186660063980604,4.514716663197362,7.090326215152459,4.421304032352552,-1.8153635112495365,-1.0702153894562372,-4.146147358027392,-3.215602897243592,-4.853683805275864,-0.7073491467371298,-8.982048403041698,0,0,0,0,0,0,0,0,0,0,0,0,0,0,0,0,
308,10.590559940361416,7.586128531265352,9.56526654436643,3.615454215878678,6.600808018118819,6.020301253738701,3.5011359628466323,5.715522424764224,2.624148443819152,-0.9573660831099176,0.5780338342924978,2.8421527770444754,-3.480661547615142,-1.1985053093508995,-8.717033739367942,2.1328484898895255,0,0,0,0,0,0,0,0,0,0,0,0,0,0,0,0,
309,2.1065841091259117,2.565794533341972,5.671145930700597,2.440139950269618,1.4180643557536143,3.46987798856302,2.0593327960785643,2.7964996881836157,0.13061903201320035,-2.1981432783468193,3.1682928834745994,-2.1111223213726333,-2.12278903410229,-1.9594314538518631,-5.6407136400504925,6.918027311283041,0,0,0,0,0,0,0,0,0,0,0,0,0,0,0,0,
310,-0.5166896830049943,1.558583316414321,5.611779940610198,2.595188707025727,2.073793714984742,0.9282575986426451,2.6744335366363075,3.2317366504288927,0.15419862512905524,-3.9940067883704984,0.5601867636067581,-5.209026066532104,-4.46836250972909,-3.6595704687682513,-8.212892558166978,6.6942078148871715,0,0,0,0,0,0,0,0,0,0,0,0,0,0,0,0,
311,-3.054951710133322,-3.5669496241470267,1.2900526012169165,-2.4863660626601476,-1.4913341845987098,-3.992726880605928,1.4656126726660883,1.2364577791929907,-2.131498263498983,-4.146499382824331,-0.6032381045848254,-3.4125667038072294,-5.8597260435764085,-2.5009051962568662,-8.825140089041128,3.535342543379347,0,0,0,0,0,0,0,0,0,0,0,0,0,0,0,0,
312,-7.612014587263832,-6.221259364075362,-1.1126199294243744,-3.2615459572937957,-4.010201233623905,-2.5813137590346233,2.0745547316760247,-0.1538226808113068,-3.4421403253524687,-3.844819697669891,4.08637240319468,-8.17412985812743,-0.33200623471952895,-1.564094300414638,6.33450721377352,1.4696517325882255,0,0,0,0,0,0,0,0,0,0,0,0,0,0,0,0,
313,-9.180261963239275,-3.5963433342450095,-3.598861572246058,-1.1403010399056388,-5.425320776115441,0.41883789416798045,-3.935741536291694,2.5378954527538014,-2.918295162794962,-1.2277726679497931,1.3032340283082675,-3.8544531676484155,1.500772430907844,-0.6837743465374757,2.198010686735117,-1.0824766902631708,0,0,0,0,0,0,0,0,0,0,0,0,0,0,0,0,
314,-10.952994329440777,-7.037164783042588,-10.015022540091017,-3.550000860055661,-10.344802829374565,-4.471112418384145,-13.523227690194911,1.2006634601281299,-5.180165025452297,-1.1573524241199777,-6.3339162801869335,3.2153339359046527,-1.5560269508688975,0.5483294891813699,-2.6165960650697073,3.2490580157369173,0,0,0,0,0,0,0,0,0,0,0,0,0,0,0,0,
315,-11.83327176804923,-8.924844179723173,-9.258583156760096,-3.6870932641193193,-9.35123760234002,-5.808104886841214,-11.253865885332225,-2.7652245723269004,-7.732732653968256,-2.7069174094240225,-6.980734504258827,-0.08189116742046565,-1.6458999179096594,-0.3004047360411164,4.174606312943062,6.811992234464096,0,0,0,0,0,0,0,0,0,0,0,0,0,0,0,0,
316,-12.570278084916723,-8.156945380278145,-9.816988170562489,-5.387847489933996,-7.593050069776112,-3.0112617142768414,-8.70961773426773,-5.334506887919353,-5.8782534744113235,-3.580919781286312,-6.7970375958413385,-5.912746405021807,-3.565071616452691,-6.353483972709363,-6.112356427502007,-4.556992156079982,0,0,0,0,0,0,0,0,0,0,0,0,0,0,0,0,
317,-18.06304145247441,-14.099586197308355,-17.146828253377876,-10.254900305007126,-11.689735309583071,-5.03888999196888,-10.010160627613402,-6.268560393150025,-6.607797339299154,-4.929939878044259,-6.407317748401965,-7.941192757596809,-5.588258640171659,-9.275957466857164,-13.585560338981992,-10.06759005012799,0,0,0,0,0,0,0,0,0,0,0,0,0,0,0,0,
318,-18.006636610781086,-13.630319244521075,-14.985895475585878,-7.695979081296798,-10.621303734051395,-5.720693193859503,-5.755315077474563,-3.370209115916353,-7.090765901880516,-3.287243063934902,-3.0322397945595156,-3.4235998936506036,-3.573954867967508,-4.395280824538489,-12.09394873616965,-4.132127430492362,0,0,0,0,0,0,0,0,0,0,0,0,0,0,0,0,
319,-12.139222033039118,-7.703013680272633,-9.905496646455049,-6.3919984958009906,-7.070345515108002,-4.929846423151631,-3.7751931234024028,-3.2955907680604994,-5.681954283193228,-1.007347797415406,0.8318271746513517,-1.5740796400256443,0.539821196876126,-1.7888873174893476,-6.00387119562059,-6.361290312481389,0,0,0,0,0,0,0,0,0,0,0,0,0,0,0,0,
320,-9.492892365297763,-4.537347988268337,-9.62894927419758,-6.795635528604791,-6.289010489140708,-3.1845979531845785,-5.315496429837012,-2.918518007307334,-4.379306132229459,-1.8894633803434289,-0.6714137604483206,-6.509248059783012,0.555333377972957,-3.871397414911229,-0.4086765727373596,-11.048023923883868,0,0,0,0,0,0,0,0,0,0,0,0,0,0,0,0,
321,-6.05571270773676,1.4155439725770265,-6.143476514538335,-0.3272477612068059,-3.2030249742310275,2.1378151780028105,-2.474924285530321,4.4224794369275315,-2.810420634594472,2.053267165621129,-4.561945653552003,1.2220481998913684,-2.2197135625629265,-0.7579388405752852,-8.787668781682264,-6.9997002311527154,0,0,0,0,0,0,0,0,0,0,0,0,0,0,0,0,
322,-5.731232303609417,1.6230771341034398,-5.985198497320624,3.3298975147312007,-1.6326688266999412,2.818579189444989,-0.5697409746266828,6.7534369664275005,-0.866156576868562,5.503485243370864,-3.3172785325643632,9.795333748530265,-1.7012116891485363,2.2825204615138084,-6.827557921082189,2.8313264517920533,0,0,0,0,0,0,0,0,0,0,0,0,0,0,0,0,
323,-7.126692910467185,0.0099480160891261,-6.436771513028518,4.61349088051962,-0.7932724152822175,2.5206189588886048,-2.2006925083562976,6.62870443407094,-1.2674187784979072,5.5128915739588855,-1.3533680791439031,8.376930485929169,0.5034589828937737,3.6233263351781897,5.316122699716791,10.471821119624302,0,0,0,0,0,0,0,0,0,0,0,0,0,0,0,0,
324,-2.096248104090691,5.9452686632345575,-1.0364627676254656,7.98708361980907,2.0907637505419103,6.369566063113027,0.4566801774358993,11.289291612314742,-0.4283513720808738,6.601247124637109,-3.419765106215566,7.346438417917035,-0.8526134214439969,5.39926300165841,-0.11278428992979439,7.577464197205014,0,0,0,0,0,0,0,0,0,0,0,0,0,0,0,0,
325,4.375803762614254,11.625232571185748,3.585459989985651,13.070826736388327,5.20150732194729,8.478608678807447,8.406149571722239,13.212030314403592,2.322449614395069,7.321859106911398,-4.7072184176473915,6.327328806773389,-3.314434825204308,4.055195003471111,-6.438482200219112,0.4011694230104226,0,0,0,0,0,0,0,0,0,0,0,0,0,0,0,0,
326,0.47475603839096436,7.245789030419161,0.5915423362414174,12.010083254221172,1.9471743371706651,4.210346405424531,7.408247294777212,11.287918334610708,1.7318370379712604,6.798291892732933,-5.41416388390391,7.869134061680549,-4.951715868709213,4.522441472595318,-3.475837689655876,4.397288812610078,0,0,0,0,0,0,0,0,0,0,0,0,0,0,0,0,
327,-4.768793929753215,1.5909899426291787,-3.3809637886536734,5.791106192528872,-3.1305454835519697,1.115177561372704,3.0768570626877505,13.02449018022125,-1.0897422603268012,6.172889056220853,-6.361928823517445,10.459643557351079,-4.714681795200796,6.798928128984251,-3.7031928291279534,7.514357878156854,0,0,0,0,0,0,0,0,0,0,0,0,0,0,0,0,
328,-5.408450737588794,1.525115504211172,-4.299965405541599,5.070299207272797,-3.3597630643263443,1.549023457643571,4.120682391742406,14.093091014172018,0.28603106797955746,4.836048347221482,-6.595713456500512,3.8917779184144266,-3.7507808809216208,1.5033891350931583,-8.473128100661999,-3.9070014142058263,0,0,0,0,0,0,0,0,0,0,0,0,0,0,0,0,
329,-4.1049392056568905,3.030242686566339,-2.1422865702115104,7.458149249196055,0.0757367658874557,1.6680026967780321,4.752092694688315,9.70373986311128,2.324764679429151,1.9087567079866403,-5.866542976558307,-3.518255005644768,-3.3547766157786008,-4.3744920404817265,-8.942838215048184,-6.950471429363244,0,0,0,0,0,0,0,0,0,0,0,0,0,0,0,0,
330,0.9792791226505528,4.747957168137702,1.994284098302515,6.097663710463564,3.351756605462171,1.7643783055730609,3.9429605446464677,3.2445753020465915,3.8764704926748976,-1.2693359783812284,-3.3524336514899105,-3.507968787367318,-1.52715103496719,-3.222891427308717,-2.9962546146820728,1.1444979025048596,0,0,0,0,0,0,0,0,0,0,0,0,0,0,0,0,
331,8.170863554230493,8.919571853213185,5.207211331606601,6.809420642001584,6.188522184451969,4.911223533445984,7.1126055925829235,0.6447752085987091,6.629872128139084,-1.544197323935279,-0.36358830199838366,-3.0432211426295765,-0.7992440642971417,-3.1808898127305127,-1.3774840834166753,-0.6381561987265343,0,0,0,0,0,0,0,0,0,0,0,0,0,0,0,0,
332,5.649549252681112,6.6624691632698685,0.952102484335434,5.2530981511582695,3.6716491977416865,4.244354002679437,6.750702433743541,-0.9433231917900784,5.586176717050705,-1.9074554545268256,1.454518901830724,-8.892685953924925,-1.9538497150710583,-6.5962315284252,-1.5797940767949328,-7.130961126142907,0,0,0,0,0,0,0,0,0,0,0,0,0,0,0,0,
333,1.1990836549223545,3.099295755697476,-3.414818735554306,2.812171675476222,0.7261099364882639,1.2146828081902328,5.380880215229581,0.7497172693203211,3.334441137736377,-4.523582046419797,0.21163733121255035,-12.438984881827096,-2.8517921643592317,-6.991098211050428,1.6322353005882348,-4.071419675318161,0,0,0,0,0,0,0,0,0,0,0,0,0,0,0,0,
334,5.444511317195548,7.638363402394379,-0.4010129880297626,7.430798717684443,2.4967205597526387,3.038750934334601,8.46911222110262,8.602004844504055,2.4200123977187786,-3.0050011288515037,2.163796288054499,-5.7213223930974095,-2.5658995029811393,-3.4571926007239995,2.280961360930405,2.361187257960488,0,0,0,0,0,0,0,0,0,0,0,0,0,0,0,0,
335,8.891654457665455,11.097590205066064,2.7490883915922675,9.932544142566691,3.2056739259696077,6.11988546309842,9.129177613630082,13.789816449139023,2.864960357767302,1.8523672909938114,6.430385239987594,0.39627056556902573,-1.137194277261976,0.582161052531319,-0.27844244950821206,2.4992747007861595,0,0,0,0,0,0,0,0,0,0,0,0,0,0,0,0,
336,1.511526613340112,3.4118136179897776,-2.4154927265230723,1.422723578756952,-1.4061341411228616,3.2173758345019094,5.555973672035867,9.774826471490062,0.7659664457567175,3.4287885309910706,3.665382280721886,4.731247002306787,-1.7286230683268258,5.29419102141685,-0.4752424348333264,5.902348880079909,0,0,0,0,0,0,0,0,0,0,0,0,0,0,0,0,
337,-3.51949823763505,-1.1654717674335107,-5.217765114528792,-1.427264974550293,-1.2401298767677478,2.170179693875431,4.424200341946854,5.664786270830694,-1.3779921690865677,1.6421362459439877,1.6658288233671428,1.7210549179951045,-4.028925730437436,3.7524007119240963,-0.527012562091798,5.57420301622966,0,0,0,0,0,0,0,0,0,0,0,0,0,0,0,0,
338,-2.9101513846583096,0.12654459300952325,-3.6514516212151733,0.6735222523168929,1.3498535279681363,3.519253383012799,1.7043798853636112,2.090047608882207,0.15126060703262567,2.7318251530066817,4.77205762823791,-3.7678629202735863,-2.5649779947326152,0.2843610855302927,-2.893194243637197,-4.201323028817612,0,0,0,0,0,0,0,0,0,0,0,0,0,0,0,0,
339,-3.5120790444139587,-0.9464781621440181,-5.837901959293546,-4.347761866092743,-1.314393266188553,2.1117437828146848,-1.5364947630482035,-3.596449472625391,1.4523820964903678,3.1012454465474804,1.7259864046982827,0.041779391387365195,-1.3177037707177064,3.0133536919636015,-1.4569467559876728,-1.8973807084698429,0,0,0,0,0,0,0,0,0,0,0,0,0,0,0,0,
340,-3.6599253766126267,-1.1625860260393637,-6.903158697128397,-4.3416412950500884,-2.2936911791405663,3.168674008784059,-0.1603311661110567,-3.8662700135261616,-0.4452385513319541,1.3850570247359713,-1.2900459114346816,-0.9218923734022866,-2.11931601498825,2.879795746981195,0.20400662856208385,-2.4731805309231447,0,0,0,0,0,0,0,0,0,0,0,0,0,0,0,0,
341,-6.816059552933581,-5.163428405459314,-7.88673457920855,-1.2934014180094593,-4.123783082781301,2.039543647952769,0.5135318488722618,-2.0508121695645727,-0.1553894751897218,1.393420624936411,1.1608200867755727,-5.747144223719303,-2.054938854244817,0.8489156711673402,-1.8808234612156127,-5.9699544358050325,0,0,0,0,0,0,0,0,0,0,0,0,0,0,0,0,
342,-10.891818267494216,-10.353891114476369,-11.098742230803893,-5.988756512756453,-9.897648985285272,-3.862260648812608,-1.1233093051611576,-5.222387089833532,-2.00901082928101,1.136034693452352,4.501598053400194,-3.2869681163804216,0.11059339353886344,3.3798072428966037,4.140906721077954,0.8631226710616176,0,0,0,0,0,0,0,0,0,0,0,0,0,0,0,0,
343,-9.558273553997068,-7.410418713405207,-10.359371837454319,-7.1245275278245686,-9.00858522830984,-3.308013149599134,0.18745053289042346,-6.348581661158299,-2.77886846749729,-0.13597367087878354,5.850664796444203,-3.8152420257194706,1.2060366389047346,1.1793556445438895,2.3017266092997417,-4.017925099387685,0,0,0,0,0,0,0,0,0,0,0,0,0,0,0,0,
344,-7.428195834351783,-5.1006478744285175,-9.047011940785751,-7.858731996927986,-4.20309920306093,-1.812393332792908,1.6711321952103617,-6.434637038895083,-0.03568721073094849,1.0524006309389193,6.7567210208873725,-3.448937832963793,2.9943713338144775,-0.2468085495840171,-6.380556147747033,-10.25661217946757,0,0,0,0,0,0,0,0,0,0,0,0,0,0,0,0,
345,-4.965763019149975,-5.565246382908242,-8.866070318997245,-12.767415831719347,-2.635652418109842,-5.4903929365382,-1.326567222555724,-10.401129095992516,-0.07307067881858842,-1.4477758799317542,6.015290248082138,-5.584535366460145,3.6570104138824497,1.063706843469383,2.445095981400801,-3.2947552879507978,0,0,0,0,0,0,0,0,0,0,0,0,0,0,0,0,
346,-1.2127368457404515,-3.73406547673207,-6.450684902720127,-8.567960845703169,-0.5999985990497549,-3.7934462743959614,-4.785157416372911,-10.001280998457645,-1.1462924599361202,-1.688156584405025,2.2390772205346803,-8.159765259711342,-0.09376309160759178,0.6809535258501782,4.863079769987811,-1.281679116033576,0,0,0,0,0,0,0,0,0,0,0,0,0,0,0,0,
347,-5.421408374286145,-9.207290404572547,-8.92816771622806,-8.108308294049678,-3.7834931180214966,-2.6093487369801096,-5.949243517347611,-8.085284358515807,0.4867099161100743,2.9150045387634975,-0.7164255432612316,-1.708957856161586,-2.934670555789312,2.9816944864643276,-5.837266600132283,-0.43123637087861155,0,0,0,0,0,0,0,0,0,0,0,0,0,0,0,0,
348,-8.40884373547155,-12.78410890604033,-10.059689450230366,-12.597097459114124,-7.349652079196886,-3.8423500834776263,-2.4959813868908753,-7.092475030540555,-2.725230831100886,3.4256289993321998,-1.1086341409459597,3.17146799498809,-2.525451947261832,5.6314936346410285,-5.5465923876087455,3.6126579857145025,0,0,0,0,0,0,0,0,0,0,0,0,0,0,0,0,
