%OpenBCI Raw EXG Data
%Number of channels = 16
%Sample Rate = 125 Hz
%Board = OpenBCI_GUI$BoardCytonSerialDaisy
Sample Index,EXG Channel 0,EXG Channel 1,EXG Channel 2,EXG Channel 3,EXG Channel 4,EXG Channel 5,EXG Channel 6,EXG Channel 7,EXG Channel 8,EXG Channel 9,EXG Channel 10,EXG Channel 11,EXG Channel 12,EXG Channel 13,EXG Channel 14,EXG Channel 15,Accel Channel 0,Accel Channel 1,Accel Channel 2,Other,Other.1,Other.2,Other.3,Other.4,Other.5,Other.6,Analog Channel 0,Analog Channel 1,Analog Channel 2,Timestamp,Other.7,Timestamp (Formatted),Annotations
0,18.08445837053799,5.101268624097706,5.370565133505693,3.014222912141147,4.335528448273351,-12.953215610575796,2.0663644251592643,-0.16855989866091647,-2.740491603925882,1.4042018418742082,4.574890518484146,-5.5543622509366095,-2.2360879991076814,-3.6553907079069017,4.61357974984122,-9.072767622819914,0,0,0,0,0,0,0,0,0,0,0,0,0,0,0,0,
1,14.9560182062237,4.3467387356873886,3.4923178574342906,4.440629611455645,5.913750278375545,-10.276568957904402,2.1036589816200504,-3.3169281120537306,-2.0313545603165517,0.7375628939042507,1.455298940743221,-9.59220923507432,-4.143013389915986,-5.465471946314278,-1.086338165207998,-12.750183815249498,0,0,0,0,0,0,0,0,0,0,0,0,0,0,0,0,
2,11.539801447439892,4.6190934412126765,3.7157062969011303,6.311972227016842,7.649329270485662,-7.600035359871342,5.898899735916068,-4.690448937168551,-1.1947701699746198,-2.59547912417199,-1.0752845967188147,-15.160324504728404,-5.911150663771196,-10.749493585274099,-8.475499000136516,-19.172053830174267,0,0,0,0,0,0,0,0,0,0,0,0,0,0,0,0,
3,14.99554075794461,5.524862540745843,6.683493208245838,3.16359896287144,9.685343561716016,-5.917911640785077,11.185720086950766,-3.813614173669574,4.18005608239565,-3.038182632646025,6.4561101008402115,-13.500564031906418,0.10884486358980805,-10.203615575931904,-0.2330744552936279,-14.91753897047712,0,0,0,0,0,0,0,0,0,0,0,0,0,0,0,0,
4,12.755396394061968,1.3326937058063137,3.967770464329348,-2.8569610772053338,7.709635609150176,-7.623466494487971,11.285344178867113,-5.778306840490622,7.232731469518215,-3.4747737759809416,12.51717737424596,-10.055220064206734,5.56580099509322,-7.24682610595374,8.586042637038283,-8.603222311407453,0,0,0,0,0,0,0,0,0,0,0,0,0,0,0,0,
5,7.27177897362165,-4.67099980131735,-2.2385885976890165,-7.768058109867372,4.3236492424913635,-9.68177602783949,5.106950660437093,-10.63319743595465,3.9699179761238756,-6.167894604643774,7.066700088733034,-9.487120386581966,1.5227116593254397,-7.620624326154841,1.1497323100787469,-8.613477778075689,0,0,0,0,0,0,0,0,0,0,0,0,0,0,0,0,
6,9.676918607219648,-0.9432400738195597,1.035558810114337,-3.8798246494196995,6.90638855827935,-1.038018502324519,3.8661291905328525,-7.906579176148448,2.5697261263895115,-5.847772957829994,1.778454615204174,-7.55030945305415,-2.8923268292175592,-7.529318561247372,-6.461675678566335,-8.328176784949854,0,0,0,0,0,0,0,0,0,0,0,0,0,0,0,0,
7,10.293907594933994,5.14729530917721,5.724947430344633,4.457551836834625,9.310470892934005,9.156976123568993,4.8715448186958525,-0.06200579485818025,4.262202731252316,-0.7035095993252316,3.7182595014992312,-3.3793578431103892,-1.5219279576695968,-4.222814672132959,-5.339201549733119,-7.8434170047821326,0,0,0,0,0,0,0,0,0,0,0,0,0,0,0,0,
8,0.3083984101165811,-1.8942468076483507,-1.7696648911878716,-0.08508564541210362,3.308392600201996,6.720336724966595,-2.397135559326138,-1.5655470202005883,1.04453915190253,0.8174697672448126,1.2322243646343107,-2.717603995574583,-3.5665302039780897,-3.627555988023044,-6.350941588659854,-9.629726837596756,0,0,0,0,0,0,0,0,0,0,0,0,0,0,0,0,
9,-5.206032747860487,-6.922439379645507,-7.220873955347194,-7.7010599758458245,0.7298490486979095,5.9434358824464795,-6.350316431400763,-5.095289407388343,-0.3583709856367179,0.20508093038480268,-1.7457140820034294,-4.1185476081098,-4.23265963432851,-3.591221545235719,-6.9804994969676635,-9.734492644547478,0,0,0,0,0,0,0,0,0,0,0,0,0,0,0,0,
10,1.3428242115233644,-0.29443938126135905,-1.0394394457190224,-3.064547772627174,8.233874402731802,14.28755593578216,-2.4488072250603317,-2.454643058323491,4.495464631961667,2.9681145893692538,-0.6250194287857624,-2.7915973366251166,-0.30469947039470213,-1.36459169266762,-7.6161289533732415,-9.394521181683164,0,0,0,0,0,0,0,0,0,0,0,0,0,0,0,0,
11,7.073489262412483,4.37941730627422,5.005512765812295,3.2454645532372677,14.088135536840442,21.43919237148969,3.2703699184443913,0.16216849510087172,5.807905286768182,4.08587156066443,-1.3951334452670299,-1.441194805392314,-1.3070248994093632,-2.1476910260243187,-10.139009613934693,-10.246078228479993,0,0,0,0,0,0,0,0,0,0,0,0,0,0,0,0,
12,7.118067098477615,2.9476527939126065,5.681571382962077,3.0518076104784324,12.166278210842279,23.90613206801834,7.299339817515552,1.6802096298968316,6.113037876928203,5.401283850504157,1.7549438159585087,1.9489830638442527,-0.5863817534440727,-0.14130416293770054,-5.664900693885848,-6.380521673143627,0,0,0,0,0,0,0,0,0,0,0,0,0,0,0,0,
13,5.2403896353879125,-0.34319338447613124,3.6391523586071752,2.8018603400707316,7.848191612120001,23.015333944011072,1.520642482154135,2.4120777769241926,5.0752520280932245,6.429278394394252,3.9008281489267596,4.934051015140774,1.7162952813158512,2.849431941496924,-0.11281919494270909,-2.3294393777893343,0,0,0,0,0,0,0,0,0,0,0,0,0,0,0,0,
14,3.025086314039991,-1.2561806541811675,3.131281634909099,5.912758862876505,8.366564194431964,24.40519594842268,-4.878715667279207,2.4006243612236613,-0.21275104692296765,3.39735116598872,-2.184554916222446,2.9992681182244567,-2.3684658492893007,-0.5919991825509783,-2.8582092358288875,-4.3835776499543595,0,0,0,0,0,0,0,0,0,0,0,0,0,0,0,0,
15,7.283708090795779,3.9650884965843964,8.58412104968387,9.041339452093858,14.510511856632851,29.691042720258505,3.4767085270594205,4.01756926433827,0.6464767952838599,2.0424175930515815,-1.4279367694859282,3.638472924670978,-2.2492488178347756,-1.4280429375956558,-0.34325204956740407,-2.3160006534580813,0,0,0,0,0,0,0,0,0,0,0,0,0,0,0,0,
16,10.039348491203324,6.052515525196022,12.504755223516435,7.280168337119338,17.89420338978734,31.76398991648482,10.569917074880667,4.831517319565121,8.164858190019316,3.028945553380808,7.219146869569915,7.058229497578232,5.441853312702065,2.510109537146114,9.946382743285639,4.730544057399242,0,0,0,0,0,0,0,0,0,0,0,0,0,0,0,0,
17,1.2016452032485372,1.5371150574611931,7.764259764259398,3.405731564772898,14.988839679983029,30.826384259657306,6.94201155911786,3.681412725887018,9.038128995615878,0.7832954546102116,6.875266603409976,4.588768490371052,6.323795536862505,1.2252655193571869,11.140059830501777,3.832155195041805,0,0,0,0,0,0,0,0,0,0,0,0,0,0,0,0,
18,-3.6923782760582853,-0.17699341128194845,2.4762821002129947,1.6868021127800787,9.816663891283174,30.327360341325573,3.7773744298764953,1.7566212706772362,4.550177640052709,-1.7823403412884176,2.8485936784781103,0.2867662453112274,2.5170460194312057,-2.4978876992271495,6.608166456513356,-0.4646262928584419,0,0,0,0,0,0,0,0,0,0,0,0,0,0,0,0,
19,1.100296106363949,1.5989066305326851,1.9983082936026797,0.6849922679904559,8.191895572292768,30.400099961257016,3.4551853939055235,0.5595246604371908,2.432897346849625,-2.1964275478078576,3.554438846632859,-0.2497955336928257,1.9344931473509561,-2.8222840029463754,8.236718729324835,2.627706128487993,0,0,0,0,0,0,0,0,0,0,0,0,0,0,0,0,
20,-0.6956096629381889,-0.36893754697972625,2.822166159254703,-1.8486856138535757,10.885614761502856,30.740024074144735,6.589148829166017,0.8371494036950544,3.3572469423596125,-2.385655784620983,4.97821354193913,0.5006034610758974,3.4564523766913666,-1.0770353990911765,11.346218373157491,6.405528847517538,0,0,0,0,0,0,0,0,0,0,0,0,0,0,0,0,
21,-10.134294607975715,-6.366381041117119,0.11433395465785345,-7.015444804865123,8.170984418527556,27.982688801969054,8.19706151493013,-0.6383205489608521,4.50251817275392,-3.6639807522228303,4.920491783114276,0.15304952594189203,4.490095036586531,-0.1707941524648291,10.484646745212125,6.056477143261203,0,0,0,0,0,0,0,0,0,0,0,0,0,0,0,0,
22,-14.569557678801687,-10.741170235775229,-6.410941738366546,-10.30885916603221,0.5608604698303701,26.779177509094488,1.4474920622170515,-3.3080987003081717,2.6151205658994456,-4.264244833111309,0.33738545493475414,-0.5670181962820351,1.9564208880755167,-0.6054335050170216,4.253432481448023,4.85552940584067,0,0,0,0,0,0,0,0,0,0,0,0,0,0,0,0,
23,-11.594308378864163,-9.6781538043047,-6.504633828835095,-7.2847160523679015,-0.06327087204759607,29.263035079281835,0.33387958705682763,-1.5560178616053086,-2.289391855333509,-3.8792512591093598,-5.554761461457499,-2.5340963043481466,-2.8513689724694977,-2.170302705394068,0.2955221084506796,1.949894406973586,0,0,0,0,0,0,0,0,0,0,0,0,0,0,0,0,
24,-10.301202979740964,-7.007245277701827,0.21350559069778896,-5.024416695962138,4.111533985491235,28.04803122748731,7.325893955919618,3.6479669050794463,-2.6934721517975397,-0.8668844271045124,-3.571512690593506,-0.026356839839547064,-1.7159226921653037,0.16383524068652733,3.8323837086863204,2.863781192477758,0,0,0,0,0,0,0,0,0,0,0,0,0,0,0,0,
25,-15.346124916274793,-11.798239808875223,-3.0573369626592353,-10.868435068367159,0.34883951248952627,22.017711038940583,5.788812829725998,2.382422362561446,-1.421611649616625,0.2347295385458974,1.4593534651936118,5.901354431945762,1.9762191027802292,4.389825444687016,9.355361314354925,9.795655793067008,0,0,0,0,0,0,0,0,0,0,0,0,0,0,0,0,
26,-19.377214377979854,-16.364645922807355,-10.75778425311418,-13.969471494128427,-4.566999177894523,20.35316036504507,-0.021458472506772353,-2.254342723856073,-2.76568500167357,-4.406143015082209,1.7200703978577945,5.1673283279906705,2.354602815020158,3.343206497624137,10.31364875446423,10.813604389875032,0,0,0,0,0,0,0,0,0,0,0,0,0,0,0,0,
27,-17.581270898079453,-11.604375639337462,-6.999796748764345,-8.434308685997564,0.9686349139689376,27.327911288496832,-0.8809885541205418,-0.976475886271654,-0.8803909561401877,-6.2972208573610615,-2.6224733024504374,-0.056428018304271355,0.21610611063895302,-1.2411197518338737,4.003080143720638,3.459908531825378,0,0,0,0,0,0,0,0,0,0,0,0,0,0,0,0,
28,-13.765277328812886,-6.3824077146175995,0.8461016344596022,-4.600734451830466,7.403432504345979,32.937565328492155,1.984273319332452,2.8063379946074,3.487774091358772,-3.536834198874389,-6.145644898495323,-1.481651168414528,-1.582073929522923,-3.836414841278645,-2.7774018657745536,-1.641266473461458,0,0,0,0,0,0,0,0,0,0,0,0,0,0,0,0,
29,-12.812151662800694,-7.403060373741248,3.947672244491656,-4.767537329488917,5.9555540093220785,31.081146158523584,3.320122350524592,4.378376297346847,5.180786811465749,-2.8318176850193346,-3.6832175106579848,1.4207511964685096,0.8918755484989926,-1.9992815922799423,0.6813655547100588,2.3650319333342242,0,0,0,0,0,0,0,0,0,0,0,0,0,0,0,0,
30,-13.47318246123152,-11.203978166049332,1.4461827435905403,-5.164508904911319,1.2577646958956024,28.692210677133026,1.3777975981669854,3.44563110079714,4.166822314426426,-2.229582276521654,-0.7683325628543964,4.294742168603396,4.540423933135646,2.1945704374591823,6.999160523357149,8.357324366319842,0,0,0,0,0,0,0,0,0,0,0,0,0,0,0,0,
31,-20.150370453679304,-14.767661897566434,-8.002291522603082,-9.53672101371388,-4.072852510477169,27.317001925894285,-5.2210039025354575,-0.2950068688633074,-0.12387256903762278,-1.2561480574878647,-3.9005192591977282,1.4197976331334399,2.331725181481783,2.008291583151374,5.038850313693381,5.433838397295898,0,0,0,0,0,0,0,0,0,0,0,0,0,0,0,0,
32,-25.062331946897693,-12.170262806500467,-13.394014425941982,-11.47829437558704,-3.6276315921820927,31.035557647719763,-10.610487485647784,-0.9612838955791503,-2.9374748632920316,-0.001799981150242047,-5.974788622384049,-1.0403258488527811,-0.09567986050819854,0.6405957101839306,1.7291006780419629,1.5489880311873705,0,0,0,0,0,0,0,0,0,0,0,0,0,0,0,0,
33,-19.80159030957583,-9.362980709332664,-8.524587025140965,-9.777730261821063,2.580609593805293,36.815338486002624,-7.608909812122835,0.1381179794385865,0.38035831294672207,2.7311319428536827,-3.0764783160808786,3.048101636236197,2.2352116308293155,3.6899208729422845,3.3459819682874574,5.9807224383831254,0,0,0,0,0,0,0,0,0,0,0,0,0,0,0,0,
34,-19.816504864893346,-14.336448871830267,-5.815667143695204,-14.852065120988637,3.0605685054221015,31.88195604685957,-6.386964603538235,-2.8369895864476247,3.866164368005279,3.2869127918942276,-1.879922788938213,5.2218927709445495,3.0739873090666237,5.264200652576218,2.5425549649600896,7.542601196431649,0,0,0,0,0,0,0,0,0,0,0,0,0,0,0,0,
35,-26.985327847449824,-19.03433975580846,-7.679796603087043,-20.235247268105375,0.6100671410030546,25.562296553383838,-9.52190532627054,-5.4061085606399315,2.9364469658108305,1.0972962316073094,-4.2550234482259786,2.9644227141377684,1.176470136178601,3.5767953139812008,-2.085584228533424,2.4003108221653724,0,0,0,0,0,0,0,0,0,0,0,0,0,0,0,0,
36,-28.428073479266295,-17.93314508098664,-6.765253596577265,-18.260097359974967,2.82997583748981,25.763595547495797,-6.020496071453829,-4.273740801278755,-0.3089927848607914,-0.7993923062903683,-3.8733751999289368,3.0519676895908248,0.6687868395872414,3.996633938194524,-1.3499348166604719,2.0066557089956714,0,0,0,0,0,0,0,0,0,0,0,0,0,0,0,0,
37,-23.829099660723642,-15.42210315204319,-4.942131825656257,-15.975406856444247,3.807347303280812,25.34744943810168,-3.0669060072310366,-2.4747479456279486,-0.8765151841351937,-0.15298570019136548,1.7108904770578732,6.665828912039462,3.548389124594209,7.4134855731825695,4.793484820650246,7.21149863811819,0,0,0,0,0,0,0,0,0,0,0,0,0,0,0,0,
38,-18.51617881174377,-12.856148284360582,-4.742456192055764,-15.514141890839486,5.445292861531808,25.78892579848753,-5.2143332419944075,-1.7124830275852299,0.9359777509492844,-0.033541654735351756,4.332504896927457,8.300387840974143,6.06412095674667,8.598679603501402,9.102254878831936,11.525341400355755,0,0,0,0,0,0,0,0,0,0,0,0,0,0,0,0,
39,-22.350990392244093,-15.192034807928536,-4.791271423062005,-18.7774154505119,9.47354294219034,23.656442233074138,-6.062100426067616,-5.635216862736851,1.842666766058862,-3.057419803000343,-0.941110883375174,2.886628309518425,4.0196567361597175,3.7231742729955464,4.796881215721964,8.059782746486086,0,0,0,0,0,0,0,0,0,0,0,0,0,0,0,0,
40,-25.53672227630346,-18.479452153860343,-4.458996097697062,-22.6028250240802,8.528661324791711,18.48702083812342,-7.179675425943282,-9.450412538447987,1.6349058217384425,-6.636121602364923,-3.2696568509548953,-5.287612937516204,2.473017549542675,-2.5970501529308123,2.3445399270640124,1.0032446027793434,0,0,0,0,0,0,0,0,0,0,0,0,0,0,0,0,
41,-17.136206687008308,-13.840044645187879,-3.458888516408342,-19.112439772831678,7.430520799431079,19.6705451161439,-6.460009819875982,-6.2716350820534785,2.7904221494806833,-6.996004834585509,1.6256658895786984,-6.755955046143242,5.144460497616336,-3.3732666316029096,9.413408331468045,1.6198752567134813,0,0,0,0,0,0,0,0,0,0,0,0,0,0,0,0,
42,-16.10706631037708,-10.666088216959455,-2.1179068182370475,-14.801027231392617,8.2439433567613,22.492480715895816,0.2864451299229174,-3.802557113345454,4.235216048200499,-5.349270912288226,-0.3182908382437937,-6.063708072927916,3.4378935587191606,-3.8022845420753058,8.049903856675943,1.165231982333206,0,0,0,0,0,0,0,0,0,0,0,0,0,0,0,0,
43,-24.710176115748993,-14.448912596934235,-1.0786253516399444,-13.778748126687347,5.019072608944118,22.484898299941207,0.03536901825214045,-4.228819403260591,4.9129434817178605,-3.80747665089471,-5.807214792733262,-6.274068113303031,-0.5929425804691988,-5.137430920381689,1.4910800446916035,-1.2090218695694217,0,0,0,0,0,0,0,0,0,0,0,0,0,0,0,0,
44,-23.144446625018954,-12.359589595667952,2.104739880076668,-7.985357546622495,6.229854845697403,24.02913953220159,-1.2284279174375143,-0.23921273826945466,5.150966774476753,-1.3788008281486945,-3.5900750844217164,-1.9484860682586316,-0.3944433943068404,-1.5560056990547295,3.962403265364266,4.5677064527895315,0,0,0,0,0,0,0,0,0,0,0,0,0,0,0,0,
45,-15.085385424364532,-6.8126259775838705,7.679032182436799,-3.3393553571231287,11.852268601816524,24.693710474513843,7.439511760633653,3.176889580715944,3.490439933831535,0.9564336764735586,-0.7567988632937315,2.3060122758906694,0.026059065855548624,2.4295260262636127,5.200866316964333,7.794746934091653,0,0,0,0,0,0,0,0,0,0,0,0,0,0,0,0,
46,-16.550487614592075,-11.411979016474433,7.8096963043500125,-9.572016758726072,9.132788517607143,18.408657510371185,5.651660683602138,-0.701621981028989,-0.6282374693282051,-0.0024324749102646592,0.6779031939671363,2.0562102145431282,-0.19595478700184543,2.897802234738254,8.427082605476269,6.787079300731022,0,0,0,0,0,0,0,0,0,0,0,0,0,0,0,0,
47,-28.716963947337906,-22.13817007672324,0.5991239452280404,-21.17335648827084,3.776620138245299,8.109603952393115,-2.113909302676838,-7.43118712439756,-2.3354942596793293,-2.6335926609238456,3.3185225685904385,2.307996873456691,2.8486972258381797,4.338564792027299,12.504326616358883,8.933989773129124,0,0,0,0,0,0,0,0,0,0,0,0,0,0,0,0,
48,-33.856987749904214,-26.76797421168679,-4.18664796918377,-29.220107197501463,4.029543929091442,3.640974035196816,-0.4521232293611206,-11.73843169595354,-2.3193059079155454,-7.87369967026631,4.4171722629352,-0.09957378519490945,6.193195914976728,2.929266504456397,12.34747858809457,9.226001069282391,0,0,0,0,0,0,0,0,0,0,0,0,0,0,0,0,
49,-21.289553598515525,-19.78690419445963,0.7065446962695496,-24.784580305895982,8.003274740901912,8.71208058174679,1.5288742958126065,-9.044395198142201,-1.6229222252783329,-11.92697155997709,7.541198328322874,-2.488460010796187,8.239582545140061,0.1263226678635867,16.19506563617299,10.233350189823877,0,0,0,0,0,0,0,0,0,0,0,0,0,0,0,0,
50,-13.741046638216318,-13.924368066681488,4.767935162313279,-17.571211246225445,8.88160964110244,11.190608170518328,1.356082282362209,-5.254117504949978,0.3057578704710261,-9.252591824980062,9.656940843246733,0.5917690063068068,7.7043375527797515,1.87924701008102,17.8815658741335,13.690473333261457,0,0,0,0,0,0,0,0,0,0,0,0,0,0,0,0,
51,-16.244766329500095,-16.551990898692168,1.3347398967994923,-19.688008085133255,4.39927988893961,7.59427985962029,-0.7367803062494644,-5.982707701526248,0.8342568351712183,-4.7814290182812895,4.996810440247167,0.8376206330267042,3.44368713345499,3.1609279022822645,11.933497830909172,10.713328346802136,0,0,0,0,0,0,0,0,0,0,0,0,0,0,0,0,
52,-13.71175487474531,-16.387081478203516,-0.28505976592400284,-19.33622217067134,3.025964485263337,8.382271323291278,-4.066407351314098,-5.2243620653059395,-0.453196303568026,-3.4059604320566463,-3.394050520204666,-3.275631820290024,-3.5157849766596736,0.4643831654521602,2.1843700751187907,3.091537693744893,0,0,0,0,0,0,0,0,0,0,0,0,0,0,0,0,
53,-13.340714314706474,-13.32227566038086,-0.09862955081319935,-15.5012210287898,6.656253663140536,11.417744069603424,-3.1768512084500315,-3.6505136604092456,1.8413852374948547,-1.0735883065214535,-6.380444894041891,-1.5173822461536233,-5.6624719803205155,1.0364107113069645,-3.230856818227897,3.3874369902247157,0,0,0,0,0,0,0,0,0,0,0,0,0,0,0,0,
54,-19.421264721610676,-17.314868599024216,-3.3851255378554015,-20.824104512820174,5.222381377419229,9.608012458383467,-5.0970319202316645,-7.315146078821055,4.707083487713225,-0.037124358607657726,-2.3130062448567337,1.0814085049543651,-1.5486381879089137,3.2550277739374422,2.1435963056567235,8.775319038383937,0,0,0,0,0,0,0,0,0,0,0,0,0,0,0,0,
55,-27.843745523749718,-23.423195910300127,-7.9286023128959044,-25.89177218070696,-0.21675540320620712,6.673320095061686,-7.4828708760864195,-11.188082179883097,2.38036648025599,-2.958674011149851,-0.16899035941704632,-1.0867274815025816,0.8142848474375093,1.7406591341926099,5.284240963609012,8.344546991870368,0,0,0,0,0,0,0,0,0,0,0,0,0,0,0,0,
56,-32.46869259543387,-24.47474548128541,-10.300791048003948,-23.889229747821254,-1.8095440937526686,4.717093066900148,-5.761575158237893,-9.510938025958174,1.1165430091862838,-3.579255957614645,-1.7658999087934832,-0.00847837939857854,1.5737085092808876,2.0642037561991096,3.0134256870986142,8.446516502129064,0,0,0,0,0,0,0,0,0,0,0,0,0,0,0,0,
57,-25.46683933268094,-20.299801944344036,-7.136861201000402,-21.77742896730561,-0.29392342511446934,4.5003873895154385,-5.820852686599888,-5.817793377160685,2.7411931286661364,-2.1480636855707544,0.7903745575872083,5.038811256062598,4.901442655585388,6.3530398904222025,6.602850022554719,14.802641454511605,0,0,0,0,0,0,0,0,0,0,0,0,0,0,0,0,
58,-21.65788998828496,-15.562158934595296,-3.806906882267739,-18.772548579610675,0.5714782832532075,5.351404443252365,-3.799304161684553,-3.9062049729877417,2.1213256825960443,-2.6501373555679386,8.759518812560083,8.248393239001498,9.366501488342806,9.930607275601254,13.69860033351662,19.303860772540936,0,0,0,0,0,0,0,0,0,0,0,0,0,0,0,0,
59,-23.886456478312752,-15.475189573277028,-4.316983376659927,-16.58055547498944,1.401314771654691,7.470126815177592,0.773924598237052,-1.4674814103333427,2.30898402849531,-0.7764359647505295,14.427719181909989,10.770133413897582,13.625537488652395,12.878286631143137,14.582825907919087,17.739419689118144,0,0,0,0,0,0,0,0,0,0,0,0,0,0,0,0,
60,-26.6599475095492,-21.683673445032692,-7.098578508897748,-21.524232492053827,-1.5940609264369172,8.715267651397507,-2.9129440473515587,-3.7055073428232306,-3.4853588759046232,-4.087264781885267,11.041687305630782,6.266162133136724,7.249390697394674,7.271762830466091,18.236032211181858,14.868533751972183,0,0,0,0,0,0,0,0,0,0,0,0,0,0,0,0,
61,-25.262658406454815,-16.11530784421342,-7.037127545733528,-16.347176127087923,-0.2597283754785703,10.503474616564857,-0.7337173211054075,-2.1400482165154746,-9.287155875123801,-7.523548708859838,5.325377761115844,2.45388883686811,-2.704159525155699,0.5834364828483309,20.395268726038324,12.946911147784142,0,0,0,0,0,0,0,0,0,0,0,0,0,0,0,0,
62,-17.40790396395047,-4.838581794958857,0.26562628827621726,-3.5477473863296356,10.349589110551658,16.818560859180234,3.517375746847061,6.738525852508133,3.450078036613533,5.916803097666577,4.28414429925563,12.27658898471752,4.032742374001579,10.53041635334898,2.4846984593274435,8.726724201658486,0,0,0,0,0,0,0,0,0,0,0,0,0,0,0,0,
63,-16.460690993633897,-9.841642000029209,0.483413430351348,-7.9811544470912175,10.550404763652082,14.220865018847793,-6.945033296666415,1.731199232916044,1.9292667541298911,5.137426483071369,-3.892023440079317,5.817274834154116,-0.5649453871635473,7.319279789428325,-6.081996502174377,1.966218024471724,0,0,0,0,0,0,0,0,0,0,0,0,0,0,0,0,
64,-16.495264322318697,-10.822499820343472,-2.2645416481710186,-13.791775106160316,8.702765528429765,9.299689606216397,-9.021574036348897,-5.5565195231643125,-7.178822387468379,-4.6586974064460875,-9.558279854879817,-5.801386200829331,-8.570612320103201,-3.1703209190945927,-3.0402600441427374,-1.9192494607608885,0,0,0,0,0,0,0,0,0,0,0,0,0,0,0,0,
65,-12.233289211001871,-6.1912846517840325,3.3749391323826323,-12.850319599899928,14.917859794284087,10.703163908334334,-3.7102940923201135,-3.692776796890687,2.1078848469307765,0.8092799119587077,-2.9826436216160666,-1.780897444965884,0.7294737438677963,2.522270120126315,-3.006893112262798,-0.23731810240218953,0,0,0,0,0,0,0,0,0,0,0,0,0,0,0,0,
66,-10.611175902037898,-7.642956895397971,3.978155473732241,-14.28840792831323,15.270846354465181,6.884650641528278,-5.91860924194266,-3.4447906388202476,1.3166968396568386,0.11739713434419485,-1.2493288438925134,-2.814385246298208,0.013018997661891518,2.7699080140740513,4.584524166793198,3.3664210835039876,0,0,0,0,0,0,0,0,0,0,0,0,0,0,0,0,
67,-11.165653776413347,-5.797225891405908,0.977519217476706,-11.921698145762853,11.231090518922187,2.6811116732008493,-7.337961099556532,-0.9411489468758365,-4.278897375883677,-1.4655112922898397,-2.3801688209327008,-0.7333142905080585,-2.4910049452956677,2.489384801884679,5.997747467802792,7.08578743797656,0,0,0,0,0,0,0,0,0,0,0,0,0,0,0,0,
68,-11.195989446305227,-5.1011971408311005,1.6551107366417508,-9.719935187990556,7.789562899041897,1.0583621434114896,-4.087781796494863,1.6101892538470288,-3.8437557824781976,0.2527230647201115,0.12672542601608328,2.291076879178682,0.19282613121997016,5.070096379824065,5.592459836422396,9.262019476112867,0,0,0,0,0,0,0,0,0,0,0,0,0,0,0,0,
69,-8.62745015625033,-7.1404255400120995,1.0248243500548089,-10.79797597899194,7.212639612831403,-5.002925383868689,-1.4221213713449146,0.33571325784212647,-4.995882337942376,-1.742613410210808,0.6524415759115456,-0.4981170470796208,-1.762347761765561,3.252295960498948,8.703591307696326,9.255291346810568,0,0,0,0,0,0,0,0,0,0,0,0,0,0,0,0,
70,-9.591941465803803,-11.124402358736532,-1.9510165690484733,-13.327971638323692,4.9008941257492715,-18.491862068864076,-5.225732364321868,-2.3212608253652434,-5.473860945689859,-2.9321753147214373,-0.9485503370597073,-1.322459496489703,-2.336035824651976,2.4459802764227696,3.5087543597295063,6.944662207020901,0,0,0,0,0,0,0,0,0,0,0,0,0,0,0,0,
71,-16.508906365205895,-17.75918258603442,-6.1096009455169575,-16.28584862819735,-0.9545651004722622,-33.412804463227786,-1.4381148939387103,-5.458584215125409,-10.560814420169459,-8.051193176262503,-0.8266182103374238,-7.145215292598538,-3.6915872998361294,-1.721909339230077,2.3950262021845177,2.5559038772414104,0,0,0,0,0,0,0,0,0,0,0,0,0,0,0,0,
72,-20.099874689494655,-18.570688573771857,-8.62953201836107,-15.727496920813646,-4.812541284921545,-41.518743834602226,3.2613813312742863,-4.277845461873547,-12.621768386842852,-9.845493802724443,0.8397719283622962,-11.122303432190163,-4.074199907861255,-4.478511357620116,4.733090641326852,0.9343016979698798,0,0,0,0,0,0,0,0,0,0,0,0,0,0,0,0,
73,-16.901374367818207,-16.77006770087906,-7.982152366603184,-13.747058305938417,-12.088685457594268,-48.743989228441684,-3.818389387037982,-0.7103631560226198,-7.74511549896153,-5.76596233353019,-0.5886770529284853,-9.763139679157895,-3.2723787526177492,-4.333434566573258,-1.3524012837395878,-2.301972032711237,0,0,0,0,0,0,0,0,0,0,0,0,0,0,0,0,
74,-15.249288218961802,-18.274265263755712,-9.151449081016388,-12.567056031219625,-16.504717884593365,-57.237168736126854,-3.5390726436644577,-0.2652306716289061,-7.928872889910601,-4.1596640048891915,-2.076213242194796,-8.757501830470995,-4.824595687141651,-5.2417891704091115,-4.617591999976997,-6.5319168725637375,0,0,0,0,0,0,0,0,0,0,0,0,0,0,0,0,
75,-15.661559141457026,-20.538718257599587,-13.299770192018768,-12.342455034102787,-15.579926387838476,-61.387945979238864,-8.584823615013523,-2.470498881045046,-11.821916550783989,-2.41935167145356,-4.608496408333146,-6.992532123974481,-6.908626822178649,-3.551517298354198,-3.306072107145753,-5.5274984910560265,0,0,0,0,0,0,0,0,0,0,0,0,0,0,0,0,
76,-10.90073737312223,-21.211310703112396,-13.694299058534456,-12.239867242046532,-17.348785256557857,-64.29412240874838,-19.024513010220836,-3.680769490224268,-10.915871751940909,-0.48535966670600417,-9.112665576019937,-6.6153875516739085,-6.9921021875647185,-1.8158321297029514,-7.4668919769801345,-6.213392666777415,0,0,0,0,0,0,0,0,0,0,0,0,0,0,0,0,
77,-7.1674094375222275,-19.949113221740568,-10.042549839359125,-11.092367557288288,-16.87665748326159,-68.60242169884418,-13.569954503516577,-3.460753729995119,-7.778224135534415,-1.5954244804256446,-7.073600423491601,-5.772602925313753,-4.869071871076303,-1.9300277632041536,-6.174753004774919,-4.544325790564523,0,0,0,0,0,0,0,0,0,0,0,0,0,0,0,0,
78,-8.002249094824808,-16.85354838600756,-4.038462659748349,-6.180440073615205,-12.188282934157149,-68.99564730658949,-7.404887020352241,-1.2487599812572974,-5.736127426630079,-1.6064484955603797,-0.3035915737311048,-2.646370485996015,-2.0106038590690343,-0.679105918759932,2.346189161222785,1.9315083866228453,0,0,0,0,0,0,0,0,0,0,0,0,0,0,0,0,
79,-4.179727758219645,-13.94385995622962,2.968394466777359,-1.7442272620955066,-8.267149652515148,-66.6756020167444,-3.7072948185079326,1.8028582442705847,-2.806191342473541,0.5402575097246309,6.085155089275227,-0.2024967596892422,2.786517583235982,1.0132245993978408,7.776275201242102,4.664123808586119,0,0,0,0,0,0,0,0,0,0,0,0,0,0,0,0,
80,2.9221939760620295,-11.118830979398687,5.221999710817073,-1.5830983721411975,-7.716533669754739,-64.40811341298479,0.1115614321308307,2.4371878197403003,0.10485147869644251,1.4724851054045018,11.103496804582559,2.7118498470742676,8.039178807848094,2.375708834541541,10.494441310858523,7.247087440560911,0,0,0,0,0,0,0,0,0,0,0,0,0,0,0,0,
81,2.1590238070150107,-9.524951246105747,3.7431796924877085,-0.5864938196127714,-10.037137657419944,-60.987651200860554,-0.7369435972290539,1.2597007054339713,-1.0089825792889968,-0.2804087549342853,10.404671544855317,1.0764039968636894,7.177659259474947,0.9528510344389556,8.430412877726445,6.778094793806945,0,0,0,0,0,0,0,0,0,0,0,0,0,0,0,0,
82,-0.9140200874327853,-10.72978526505705,3.6125085830071995,-1.480054261741909,-11.266360207993873,-58.62803380321917,3.852902495427241,-0.18199561423381372,-2.197585703604652,-1.5049023597696127,9.560950197340407,-4.184025499062768,5.587525311571163,-1.761461213971721,6.125719230471301,1.9232643914079213,0,0,0,0,0,0,0,0,0,0,0,0,0,0,0,0,
83,-1.4666643951913105,-14.014451232117842,2.284894990474099,-6.004085968963885,-10.84536494588901,-58.308078103194724,1.3001641630116048,-1.677566579148893,0.02268073634992973,-0.492684042728154,11.613520100486074,-4.25595607696642,7.81135025301834,-1.1792572942155743,6.668879142794918,1.2326811795955446,0,0,0,0,0,0,0,0,0,0,0,0,0,0,0,0,
84,-1.481655905438183,-16.302390809952897,-2.730231528816438,-7.414441524865602,-11.317987653220854,-56.39823977198105,-9.774534167257752,-2.811498174805126,-1.2260709006215826,-0.7051289838427479,8.964265629522423,-4.087605480335618,5.977856970587908,-0.7859248976920306,3.6477388124643504,1.0806224931158785,0,0,0,0,0,0,0,0,0,0,0,0,0,0,0,0,
85,-1.5223720609012616,-16.06243348618521,-7.536358284404487,-8.730208709194503,-13.83030572413487,-51.94378115521911,-10.48719385868799,-4.515500566102724,-3.0350279183529203,1.1491016121854045,4.514389771564959,-4.196616261799953,4.1845216363074265,1.0204846972016952,1.9042406694333955,1.0948227808106332,0,0,0,0,0,0,0,0,0,0,0,0,0,0,0,0,
86,-5.5192640400784265,-17.294285369017775,-11.260015509144122,-12.257893973056111,-18.564392931147186,-49.0903696371684,-13.509019500803209,-6.299919856405117,-2.903108698910323,4.606244601748191,1.257417761232814,-1.6173530423206728,5.212143772792686,4.652319099532765,-0.06416348271347161,1.8957373654720928,0,0,0,0,0,0,0,0,0,0,0,0,0,0,0,0,
87,-11.124789698808431,-22.90738609366973,-14.176923910612501,-14.889303279822139,-24.521491451422726,-49.37648322779312,-19.069820365832822,-6.16814610870711,-8.90024034428577,1.0209245237390725,-5.27226567054954,-4.346682363952166,0.0806062728755883,1.6489569559762245,-7.29965218486776,-2.1730412193854485,0,0,0,0,0,0,0,0,0,0,0,0,0,0,0,0,
88,-9.649817835407841,-23.809009660367916,-13.158756589270222,-14.899624275920775,-24.731594182159316,-47.822724133597454,-11.550812901366676,-1.8566533357740642,-11.450827922226331,-1.3079280330742193,-9.643080355443036,-5.496651813107878,-4.492273082220201,-1.2471434295318389,-10.18379469963158,-3.7012028830706316,0,0,0,0,0,0,0,0,0,0,0,0,0,0,0,0,
89,-4.602379982315753,-18.520108867282907,-9.400900633183827,-12.157941328885443,-20.50067742560382,-43.94507440022785,-5.7110113914745035,3.4497508679481257,-3.9651385285328864,2.987466654428225,-3.4823202977001237,2.3979318607066205,-0.3170061103765356,2.599272416752438,-5.413542783950714,2.2531014390466533,0,0,0,0,0,0,0,0,0,0,0,0,0,0,0,0,
90,-8.52981278274672,-15.581501006406022,-5.051505986061947,-8.488518820909315,-20.765437107823196,-41.707938518238436,-3.8951233774707656,5.795294899821258,-2.8543026616420057,0.4431942752744469,6.104162687577725,6.431155347242296,3.0172502774288006,2.728859935353686,3.314997324739064,8.54684467012558,0,0,0,0,0,0,0,0,0,0,0,0,0,0,0,0,
91,-11.858417826898162,-14.298971630636862,-2.097165098348368,-6.0183019425618784,-22.15027397483466,-37.21533381857548,1.8431248222002132,6.837257519034598,-5.568214018501475,-3.590927106314254,7.0466975915487104,5.586886350701441,2.652877137324076,0.5919320651478515,5.955762118054107,9.755871757460337,0,0,0,0,0,0,0,0,0,0,0,0,0,0,0,0,
92,-4.270034651079527,-11.180733005314053,-3.2036843075198487,-7.051265750015435,-18.81164657197134,-28.728851368607,2.807299530762837,5.848965088199957,-3.678063486995409,-1.1413732868787072,4.129619566844097,5.306814145878768,2.570019604177137,1.4897616903185273,3.2175944980016027,7.842449357838482,0,0,0,0,0,0,0,0,0,0,0,0,0,0,0,0,
93,-1.8168179168734255,-9.223108913726168,-5.284905875661842,-10.753088672697029,-15.829069451484559,-23.029123493623263,-0.7462152163391877,0.5525642930799286,-2.3321724915152764,-0.10926328631646243,7.029918377636438,3.6330393749633316,4.579709453749043,2.1083685468612217,8.062610615257869,8.841624507012266,0,0,0,0,0,0,0,0,0,0,0,0,0,0,0,0,
94,-3.5836110024484604,-9.697158989901283,-5.098471689668784,-11.632542118664901,-16.19880730827558,-20.43505311209834,-2.8380675336243932,-5.939849781700236,-1.9817713086522701,-2.4312579670408248,7.226789201095865,-1.3176587660673214,4.576360290155865,-1.0205958601087488,11.409978927609917,6.975939942138561,0,0,0,0,0,0,0,0,0,0,0,0,0,0,0,0,
95,-3.467273319222258,-9.556547830141753,-4.559033522712499,-8.863006624868415,-13.992383889948721,-18.02714531100186,-5.8770869297296215,-8.560319537236865,-2.965025364521674,-4.782355267442142,2.210694903967477,-7.896549769494117,0.2610053058663624,-6.218465416064339,4.938522032782711,-1.511395989899541,0,0,0,0,0,0,0,0,0,0,0,0,0,0,0,0,
96,-4.416885802794326,-10.397601552678399,-7.16690399015461,-8.68521427090517,-12.689019881988465,-18.31937068041591,-10.342998065154696,-6.5857821425966705,-6.290957487275747,-3.489629739443677,0.6154008577171748,-8.952003787048424,-2.2257228978221164,-5.76666186780926,1.2431494150566698,-3.4488731023383923,0,0,0,0,0,0,0,0,0,0,0,0,0,0,0,0,
97,-7.064076323088049,-15.407085359803538,-11.839649751514218,-11.922688197458996,-17.218004678160128,-18.608416480209222,-9.981580597640342,-3.346177024724142,-7.78217446932728,2.116471267193498,-1.3989548545425468,-3.98953331483321,-1.9343577860681247,0.1425702127857118,0.3077458019464956,0.3457887443280945,0,0,0,0,0,0,0,0,0,0,0,0,0,0,0,0,
98,-15.629924080499585,-17.9123862804032,-12.595618531247807,-12.461660530439012,-19.445308638101068,-17.568438200243257,-6.920073499780777,-0.8282753529361067,-7.4582712099305155,3.396913948605645,-4.885643262973305,-1.7892592484685714,-2.5215068460140078,1.5988560816093091,-1.0538398518624088,0.15460404088641544,0,0,0,0,0,0,0,0,0,0,0,0,0,0,0,0,
99,-14.632375041245758,-14.442594657656475,-7.339025373243065,-10.332843137452993,-16.45708319230907,-18.05785001686381,-5.922549910833009,1.2585266467681322,-3.35029418711453,1.7746991243978734,-2.150805648197866,1.4339651452244544,0.3681884899440133,2.100370253035201,0.21201268190910771,2.7300165149230153,0,0,0,0,0,0,0,0,0,0,0,0,0,0,0,0,
100,-7.657097929221219,-14.92172772421624,-2.6751968069973913,-9.35080612922766,-15.651675827551774,-20.766323592493862,-2.9169218316443732,0.38180233664368046,1.0637079301832264,-0.07718419272323529,0.8593452078369523,5.248082782022879,3.139290733256666,3.201068730839564,-0.8231473780915968,5.401697079404211,0,0,0,0,0,0,0,0,0,0,0,0,0,0,0,0,
101,-12.060334089258443,-15.773700258879185,-2.415257564714142,-5.757790681370615,-15.690434768952178,-21.087479587953737,2.733799042576358,0.4663568414674657,0.35576698746936053,-3.255784694322943,0.45156484305201694,4.854416250898332,2.131830951869611,1.4251926027741657,-2.0564799331695056,4.576401581451131,0,0,0,0,0,0,0,0,0,0,0,0,0,0,0,0,
102,-10.305639211546406,-9.767947573331401,-2.7298769312178406,-0.5365311534121808,-11.781064455552453,-14.67183820708755,2.740787158175621,4.488044392519734,-0.5183446758936832,-2.237274693224091,3.4590658993865286,6.6118230510402265,3.5487287018802744,2.397105832266541,4.885140184937233,9.238416820216605,0,0,0,0,0,0,0,0,0,0,0,0,0,0,0,0,
103,1.9948607843483401,-1.759877424131762,0.7775879615415398,4.490828732275164,-6.836235234699666,-6.243132660535098,-0.08266621589272916,6.971960626496937,-0.18091315643852646,1.2984103623244536,6.168386582754327,8.042130706392346,4.788735246725924,3.5718553631514194,8.536075090375885,10.412205687914973,0,0,0,0,0,0,0,0,0,0,0,0,0,0,0,0,
104,5.3725362425347285,2.635730664165319,4.001371924838023,7.668439018152828,-4.211689693713511,-1.9396397062926316,1.1658162979876572,4.867533363435257,0.19672328304271147,3.9724238227213267,4.253306242716476,4.422903124522152,2.7992938609441023,1.3004904085514593,3.7307199781237035,4.222122762685297,0,0,0,0,0,0,0,0,0,0,0,0,0,0,0,0,
105,-0.5180786021420651,1.4870644466998293,-0.3666211330994016,3.8185989672484055,-4.284408008460259,-1.6408648321709962,-2.289971533017418,-0.672235061190043,1.3101289086608467,5.3345599077639445,1.3540548694729164,-1.411768775911403,1.1316737734595677,-0.8594456093594509,1.0246834303944503,-0.07683043040911211,0,0,0,0,0,0,0,0,0,0,0,0,0,0,0,0,
106,-5.13822795433285,-2.2974546397954967,-7.45513345272515,-3.5564478408229476,-6.916607874553178,-3.954416216122878,-11.643820858268384,-5.4739329832703945,0.9844432544561954,3.485955357837639,-2.728046268740136,-6.487698175326058,-1.156871613738332,-3.0738144742214217,-3.0260025450858166,-4.400511944123959,0,0,0,0,0,0,0,0,0,0,0,0,0,0,0,0,
107,-6.804728441109807,-4.1272134744272595,-9.739382099320572,-8.898875043721011,-8.312230444889419,-7.347499887964941,-13.569970362673093,-5.994864796442943,-0.7164506769263532,1.1774548408190775,-4.762877474856959,-6.873714861993053,-2.216919636805546,-3.6648756440890544,-5.306510116327882,-5.798406856294271,0,0,0,0,0,0,0,0,0,0,0,0,0,0,0,0,
108,-9.590082644989536,-7.659176809030924,-11.814839937597501,-12.39202650258001,-10.468572900418849,-8.173344258448957,-14.030707539081108,-6.823362603833506,-3.0919282639885886,-0.9321962500554335,-5.35108982059192,-6.263587149821362,-2.153313599461516,-3.296594325831478,-2.9957924227671775,-4.4134799021060935,0,0,0,0,0,0,0,0,0,0,0,0,0,0,0,0,
109,-8.79701489480684,-9.7418569469729,-13.38425685544362,-9.86195492480488,-12.210503784500318,-2.813434878257592,-16.05787371093093,-5.210605640681319,-4.22406603769015,-0.8783083743321889,-8.159938524387364,-5.056990314038295,-3.1238465741889705,-2.3546924086176055,-4.883919081006322,-4.448436773490566,0,0,0,0,0,0,0,0,0,0,0,0,0,0,0,0,
110,-5.755112686194679,-8.088499586242321,-10.11592748219675,-7.122407633928351,-10.335496667863897,0.5727853401668082,-12.000911190350735,-0.5291458043852764,-1.3701766316320594,2.514377090602114,-6.696083265599535,0.1488879048619367,-0.9950645790587203,1.54685590527259,-4.832318185784601,-1.5820934555071897,0,0,0,0,0,0,0,0,0,0,0,0,0,0,0,0,
111,-9.10546896988064,-9.231673310994125,-9.223779731335057,-10.176286304378117,-11.989475249675852,-4.371042287589681,-10.016600389470314,-2.295754654744176,-1.5817679953513704,1.3479741524337001,-6.332064883093366,1.422451201689693,-2.142553442699292,1.5349104723072706,-4.270570628915291,-0.2737489509697506,0,0,0,0,0,0,0,0,0,0,0,0,0,0,0,0,
112,-13.277192957610076,-8.448918684621615,-8.993820532106444,-9.207652537769777,-12.22799765942731,-2.9823201781059403,-10.816663281214808,-3.8609835008310522,-4.581913181814947,-2.187238311562865,-11.602537553586425,-1.4934928328814507,-7.22447926031996,-2.3011912905026257,-8.617888761933589,-2.5367454940354275,0,0,0,0,0,0,0,0,0,0,0,0,0,0,0,0,
113,-11.652632349401099,-5.121382151444065,-4.85288798652001,-7.0307937039586506,-8.178306565977827,3.1948307923150914,-4.113052472962453,-0.26455751408583694,-0.8821578972301864,-1.723211298171094,-8.720710824983566,-1.188171545518518,-3.44834417340288,-1.9890898009303584,-4.637325405547529,-0.532360955434612,0,0,0,0,0,0,0,0,0,0,0,0,0,0,0,0,
114,-10.810736826502954,-8.305361377666227,-4.968525906990751,-9.911226956624045,-10.752604045213797,-0.7237057585203992,-1.3865940161131487,-1.5033143441722299,2.7363612263613106,-2.7765045193127165,-1.929517665392538,-0.7457514847992073,1.7433336037224016,-1.8227599517653417,1.4530984817400068,1.1841866281720306,0,0,0,0,0,0,0,0,0,0,0,0,0,0,0,0,
115,-9.565102537415335,-9.074086426782562,-5.035822884603849,-7.366974176223842,-11.649881224818532,0.14100034802561723,-4.436588971806895,-2.4043568187950655,-1.259596076001639,-5.883044541982525,-2.38046610442548,-1.8685653586798274,-0.9257138123234903,-4.520493885690634,1.3486197412683332,0.2174974711096389,0,0,0,0,0,0,0,0,0,0,0,0,0,0,0,0,
116,-7.122949270621163,-4.2574513503239935,-0.6774034736689689,-1.9205888570612437,-6.430817190477052,9.662234752436316,-1.5511317658312613,2.0041751574427487,-1.47772503622717,-2.9047895594597968,0.5252128289093285,2.9148493141947753,1.2741710887523432,-1.0041848306504697,5.980578777757474,5.497315907119078,0,0,0,0,0,0,0,0,0,0,0,0,0,0,0,0,
117,-10.700951986806878,-7.680083540123903,-3.3938020401490103,-7.307222451519785,-8.636763086238266,8.672841757864205,-3.1577325672974546,0.7000577664627983,0.6505753567069448,0.9637188719155922,3.845741993441564,6.512203190994171,4.065656317545482,3.092976740057683,8.084332867408758,8.756263509024324,0,0,0,0,0,0,0,0,0,0,0,0,0,0,0,0,
118,-16.600964664512667,-16.27223049233287,-9.33627445029076,-17.006016338456742,-12.82351663662973,3.3047730538085034,-5.423917488100823,-5.292860997805477,-3.804076420261149,-1.2525595365704802,-3.0948526253593887,0.03792748056346085,-2.2656094612553233,-0.8852780803317799,-2.977308860067204,-0.7867412970888504,0,0,0,0,0,0,0,0,0,0,0,0,0,0,0,0,
119,-16.412443205059734,-14.538912718006703,-6.4544921454354025,-14.636899601843048,-9.732878939970352,7.893189172990928,1.9382098362264806,-5.472733759254551,-4.926782062138508,-2.846127940320633,-7.534659320318809,-4.819765881423637,-5.5392896562387754,-3.673545296921601,-10.574524839357075,-7.789865753435114,0,0,0,0,0,0,0,0,0,0,0,0,0,0,0,0,
120,-10.173404476400918,-5.71368487144715,-1.6041883492566136,-5.867360171018682,-6.709914981580653,16.14717209604567,3.7325185039042843,-2.279028999778834,0.9434236203832516,-0.8252374563151523,-4.780144803359095,-2.1189291944196302,-2.393819575765143,-1.8643506605669167,-9.492593483420153,-5.778011671752017,0,0,0,0,0,0,0,0,0,0,0,0,0,0,0,0,
121,-6.722623824832144,-3.902588739509593,-1.9783612344595287,-5.769317524578014,-5.970905018621771,16.335728487817125,-0.15802747375192894,-3.351632645896359,-0.023730109750093042,-5.101946318626413,-4.981806890655331,-3.9740870206408516,-3.7095792746481253,-5.5642246583742985,-9.313199045467071,-7.867526800900209,0,0,0,0,0,0,0,0,0,0,0,0,0,0,0,0,
122,-7.869981174195335,-3.9735577157717685,-0.3930142030947472,-6.26784029194047,-1.1522561962826856,16.13963666351096,1.3817009575688246,-4.348707469693895,-1.4174695217141262,-10.459516791172463,-5.076774241877269,-8.483357051905449,-4.719164668218377,-9.760484782464024,-8.4495343309675,-11.801053213313256,0,0,0,0,0,0,0,0,0,0,0,0,0,0,0,0,
123,-5.590046137237518,0.2543578746352608,3.716293184414976,-1.093304508665149,4.973684425003986,22.555394392732268,4.320983245169465,-1.7452556630124292,3.799257171914774,-7.214409267237275,-4.284597911043206,-8.218254839574914,-3.661733470447363,-8.722415062079817,-9.540302568632404,-13.768085519082355,0,0,0,0,0,0,0,0,0,0,0,0,0,0,0,0,
124,0.7260640571372292,2.5138947618511835,4.520833374501728,1.3918611808542032,6.177107550023349,26.520370213958664,5.463311984618546,0.6183984667549787,3.788903667343612,-3.352747440615289,-3.8964393298854385,-5.417590429912782,-4.7298702374275425,-7.434782696425007,-11.364302995440068,-14.21599105374233,0,0,0,0,0,0,0,0,0,0,0,0,0,0,0,0,
125,0.9372067441234684,1.678408469466909,1.9853514796692906,1.6947606466700371,3.270228869124315,26.895308831923174,1.3075245292369857,3.0300966769186033,1.1740255588366164,-1.4564465621985798,-2.502324931484606,0.9429928066768816,-2.9831684036875448,-3.4650189810267555,-4.628451480860894,-5.5728676903960785,0,0,0,0,0,0,0,0,0,0,0,0,0,0,0,0,
126,-6.53820069615989,1.0206306145002415,-1.5530574696698376,2.32602935688881,0.969281669990437,28.546305432774638,-4.598527218266078,6.37265064724328,1.5058185331351268,1.6647821544969021,-2.822593428083472,6.82018201910169,-0.9420218061638046,1.1871738583052878,1.25303940636757,2.4850131221548453,0,0,0,0,0,0,0,0,0,0,0,0,0,0,0,0,
127,-8.99506303409588,3.089755554724956,-0.5018746172622232,3.9580520776480714,1.9242637653315002,32.482986387976936,-3.0592909535648865,9.561216900692878,0.5959383001580747,3.375930357386247,-2.8249315782452684,7.218357054897631,-1.8361989265605114,1.1076838760842875,-0.6124015471469892,0.956525296523387,0,0,0,0,0,0,0,0,0,0,0,0,0,0,0,0,
128,-1.3848819389388325,9.073438146204992,5.207964011456854,9.047049004296273,5.499570531777229,37.756502041254336,1.9211788815139776,12.615252310080434,2.3725165347827257,6.994218550107352,0.3182634759975884,10.16381286518618,0.08155103067864644,3.651308621629653,-0.7120479482676423,3.018627294303144,0,0,0,0,0,0,0,0,0,0,0,0,0,0,0,0,
129,1.5214482458897578,8.438214626837944,6.4431398335831656,7.453724981507687,6.970839017454428,35.64858003659499,1.1554553029633148,9.467332501370624,4.639339366967473,9.95282373881872,2.096223127432279,13.640963327049711,1.4489570296297032,7.770563806107155,1.6878984473061145,7.572884410579378,0,0,0,0,0,0,0,0,0,0,0,0,0,0,0,0,
130,-3.3704890167487758,1.2617376024183962,4.618095149156657,0.6710934333864387,5.694771094623032,29.53040690669365,-0.12486060268781429,2.2203952827848727,2.128916618332571,5.573111102850103,-3.2356469337209344,9.056702445668385,-2.442462969294276,4.836790565806982,-3.02348058762297,3.5094606857974435,0,0,0,0,0,0,0,0,0,0,0,0,0,0,0,0,
131,-7.176516944556666,-2.2275537271461,4.568296560212995,-1.3833934745151444,3.505087413778174,27.36200913870566,4.0749186367354095,-2.9193573326942146,2.477302621388091,0.6226502040280515,-7.731375366996151,1.5891175507034276,-3.572518186493763,-0.5330230129793208,-8.443562231539616,-2.856643439106505,0,0,0,0,0,0,0,0,0,0,0,0,0,0,0,0,
132,-6.084766086696657,-1.2399321584889513,5.670468389188564,-3.759459032892689,3.418603368734184,25.017647026617233,8.657841614579757,-6.814570274248535,6.345452500647333,-2.435458714635132,-0.9151528402215696,-2.5607530278688806,2.0024455049996703,-2.8565738381242696,-1.8806764437988264,-3.292576936834261,0,0,0,0,0,0,0,0,0,0,0,0,0,0,0,0,
133,-0.7295926180785051,1.770553180890512,7.999345226006629,-5.131433136066921,7.652100932648674,25.2056567948955,8.059523263011926,-8.208939565136186,6.8086599352603905,-6.809992539917371,5.438041541813147,-4.50795449785921,5.123594876202912,-4.62764306056112,2.2075202089654944,-3.397021587527669,0,0,0,0,0,0,0,0,0,0,0,0,0,0,0,0,
134,2.3590573947111704,5.729703216340783,9.135440513937807,-0.9425003636486871,11.032460528797687,29.849223014871356,7.203780872266302,-6.379678194819136,5.443500516233847,-7.7118958614335895,2.7498529249911527,-6.726735355567886,2.0498687513724967,-6.947972477366864,-2.9956317939042307,-7.533258896745862,0,0,0,0,0,0,0,0,0,0,0,0,0,0,0,0,
135,2.050285456675056,9.22916082080869,9.264777821752848,2.4759052522368785,11.957523651905877,33.27968970099,7.919583127308263,-2.0555870139290313,6.420881545325564,-3.6832931782085048,0.31054782647837875,-6.388411312762685,-0.28369864102570475,-6.578266481913353,-5.3305772100282915,-9.900466080242625,0,0,0,0,0,0,0,0,0,0,0,0,0,0,0,0,
136,1.3498330547949298,10.532346871198694,8.046611851535605,3.817805819531113,11.517119454496171,33.40053960391381,4.9458449013408705,2.3553480060581293,5.774636502808555,-0.6561954138549275,-0.48072264451028524,-1.9593580562994717,-1.1360383371078626,-3.8995314553156355,-5.93285148715346,-7.765847176725826,0,0,0,0,0,0,0,0,0,0,0,0,0,0,0,0,
137,1.6010931644542286,9.95830722667663,5.760820939334852,6.5547424681106925,9.194933121069669,32.68607947451995,3.0733437577411067,3.664159518132646,2.2840822593225205,-0.11407279351226762,-1.213772045418553,2.1439786206203806,-2.353380963627803,-2.1450499355507127,-5.545447280976756,-3.973170379223514,0,0,0,0,0,0,0,0,0,0,0,0,0,0,0,0,
138,5.749942939391454,11.446266774212946,6.117000148236652,10.497356577058415,7.8875648846040995,33.80014579638847,6.9585123292775,5.494607231475769,1.5491560096169472,1.4642909828153137,1.7227016758895939,5.98404293885196,-1.9858109928264724,0.19215651349410479,0.3200412499720713,1.9187131608902812,0,0,0,0,0,0,0,0,0,0,0,0,0,0,0,0,
139,2.7603205254153202,10.610362086659325,4.467548488351905,10.734102275676435,6.054252641495886,32.936696297710895,7.285859454284553,7.448809259849526,3.0592036614226394,5.526009286043141,3.744881423400269,10.975540834512092,-0.40411110481381485,5.029778168954202,4.176794457250107,7.418911519851541,0,0,0,0,0,0,0,0,0,0,0,0,0,0,0,0,
140,-1.332892324789544,10.099297479311343,5.642045379436251,10.260463442593245,7.875253404777318,30.992766893474933,6.461094051693401,7.700630954325334,1.4093585633157701,5.182469597354711,-0.28446066634879585,11.198347868881374,-2.307963771950103,5.365536562940662,2.2519046786526147,7.015752032882154,0,0,0,0,0,0,0,0,0,0,0,0,0,0,0,0,
141,10.838218218706935,18.182997115341646,16.73569183694914,15.731224512298908,18.31251241965431,34.06120316739885,14.645670424118922,9.576840645969218,3.6734955578852038,3.052566440833729,0.3574743770317177,9.391391362034092,-1.6483736903560668,3.102246883344364,2.796232353546822,5.753176302295673,0,0,0,0,0,0,0,0,0,0,0,0,0,0,0,0,
142,14.82188828566224,19.80395497131657,18.70606761399584,16.008707209408666,20.53105120507911,31.783068181261925,21.075439037238514,7.851551384500439,9.098454418969661,3.397963797298683,7.386433332601126,7.444405251280607,3.725950619858736,2.4055483490313563,5.889153361634284,4.529015849817187,0,0,0,0,0,0,0,0,0,0,0,0,0,0,0,0,
143,4.131107733114309,9.825682922898935,9.277360315701545,6.858105887089096,12.023828368031158,21.3227549379809,19.678551290099946,2.087556792130929,7.107924062917949,-2.3423694700359476,9.125223008932746,0.8334568509166242,4.266159623561634,-2.1155171883509425,4.705816797006766,-0.6135441705219593,0,0,0,0,0,0,0,0,0,0,0,0,0,0,0,0,
144,4.531837850392698,5.8592746049319935,9.116804399859852,1.3751748702524011,11.46776314475853,18.33608397731954,21.999179710989214,0.03124338494765766,5.838660324973444,-7.53764640427266,9.931752487865875,-2.4063310470476527,4.178798107402114,-5.0153029193080005,5.060080149585346,-1.2080024599886212,0,0,0,0,0,0,0,0,0,0,0,0,0,0,0,0,
145,7.785644239210548,7.836817239355078,12.837630111189071,1.3558640914322702,14.382113634005325,22.409609749994257,21.845446947974807,-0.7361864490243661,9.675338442255065,-3.4873734253464237,11.953178912197268,0.020703856391330433,6.487469589160474,-3.10718421830797,4.92478012192981,-0.8667570170080644,0,0,0,0,0,0,0,0,0,0,0,0,0,0,0,0,
146,7.682570006701056,8.925570300785516,10.057342488742002,2.8536816248982326,12.256839332419974,23.90806775868332,12.814344954004223,-2.6306300101040847,6.7902589021239015,-1.4084477704077294,4.8511633101249,-2.774290615292033,1.2446090467499564,-5.407975817821243,-2.2193999508875004,-8.096202376909527,0,0,0,0,0,0,0,0,0,0,0,0,0,0,0,0,
147,12.933206694219159,9.6291829890759,5.619108221289312,4.483885947913183,10.57969132778516,23.764906029105248,7.550914168594311,-2.26688047836814,2.275586279831096,0.5692480203787227,-2.836103167669167,-4.268293905640294,-3.3360267689051057,-4.879959984154121,-6.829830639866993,-10.877293662215756,0,0,0,0,0,0,0,0,0,0,0,0,0,0,0,0,
148,10.504828564510518,7.80817588221554,0.4731431803173516,5.5661067496443515,8.104326942437575,22.59240891531274,3.154787631226366,-0.16044051570295537,0.4240815063313761,3.5666709660819187,-2.6620333736273882,0.05571108994427562,-2.3026294985409743,0.40560121291558016,-3.7213125803160487,-5.611888773895614,0,0,0,0,0,0,0,0,0,0,0,0,0,0,0,0,
149,2.822333291655287,9.10657120832606,-2.4588301841733164,11.449858226655566,7.838706173066631,23.2316256069753,1.056614105174699,4.537432634090324,-2.5469971994655953,2.963336802137121,-0.48243389415507076,4.902251317137937,-3.1130890417399772,2.7995836900421645,-0.06170631149898931,0.37538690895878846,0,0,0,0,0,0,0,0,0,0,0,0,0,0,0,0,
150,4.396967909634576,10.821455769309825,-2.2962129857942553,15.190987465439251,10.860214791737581,25.953183263830265,4.849297864905186,9.375588071866193,-3.0452690607450883,5.517337832322326,1.3986728629745433,11.874199441304786,-3.6842394601964603,6.128540579385184,1.5149379133160839,7.317525732240866,0,0,0,0,0,0,0,0,0,0,0,0,0,0,0,0,
151,7.729985024521255,8.918463115372685,-1.8758985390108356,12.926302004188852,12.255801069477938,26.236190000575874,4.62844526625517,10.884245787844149,-1.70668522943852,8.781700217198953,-0.038125115588065306,17.841196799435586,-4.287050097956865,9.590016866172695,-0.41980549847197146,12.327620725760626,0,0,0,0,0,0,0,0,0,0,0,0,0,0,0,0,
152,-2.8505480759490354,-2.261867970429879,-1.5237476465301472,3.8908396896090025,7.183408175991701,20.085509269980584,-2.5757478912824894,2.889977885575215,-1.1201214848212118,3.9640302399190546,-1.5762184077369579,14.99027946191509,-6.754949090581185,6.55367285083198,0.4938471032610625,12.584310654132029,0,0,0,0,0,0,0,0,0,0,0,0,0,0,0,0,
153,-10.552355467070587,-13.120430675163039,0.33709750831347085,-5.4117356813294855,0.7277876990937404,11.361545472752232,-2.8546217476014206,-8.323680027415183,-10.261086769994623,-11.968353326639814,1.5391805759011836,1.01376248188555,-15.284596974306254,-7.297291976223143,17.538435709877827,10.521710797290986,0,0,0,0,0,0,0,0,0,0,0,0,0,0,0,0,
154,9.556275783165091,9.475249971317208,10.061596428043972,12.05662123704564,15.237550048688249,19.553792685686503,20.453496791347987,3.054475188229999,-5.51482258623777,-9.136473152194231,7.790059507150962,2.4481804758063603,-8.678006855409642,-7.006287766180819,14.2891506564239,3.9377701368587705,0,0,0,0,0,0,0,0,0,0,0,0,0,0,0,0,
155,17.271872843080406,23.107875317765263,16.14426927929881,24.519820091533873,29.500484558111204,32.231880827921835,28.748186835586157,12.617475014700485,20.758897244789445,13.310765648183438,9.108107579708793,14.87203472569636,15.257654253306882,9.712301942877275,-18.231403896258612,-8.047097181138039,0,0,0,0,0,0,0,0,0,0,0,0,0,0,0,0,
156,-0.7464284837019575,3.0801134507787937,7.947696167280867,6.224097157979834,18.40446365993293,23.48943252763247,10.603496015998228,-2.27378680720473,12.945110186896002,3.2521993700461884,-0.2528423366830417,-3.37936505054806,7.4692095993857635,-1.1388759425308521,-12.614739593229991,-14.612314864475962,0,0,0,0,0,0,0,0,0,0,0,0,0,0,0,0,
157,-0.1814544212824617,4.8094035335378695,5.166942765408088,4.218408168994904,15.235938395655161,19.176915725071126,12.400040799897782,-4.16015452691228,1.888335677883184,-6.202753150603666,0.6993181623918119,-11.7698925228624,1.0229734730286495,-7.699738492826473,3.3690690070958347,-11.954201497415717,0,0,0,0,0,0,0,0,0,0,0,0,0,0,0,0,
158,-0.014805747188924467,5.161140361959562,2.870267316873816,5.850958879832761,12.781459057805883,20.714908743394613,9.051995159923813,-2.943332829700644,10.891836478321217,3.254685345977421,5.528641290828787,-0.9050365596608572,12.246499246218516,3.559309117773079,-7.29842315607123,-10.386539109376866,0,0,0,0,0,0,0,0,0,0,0,0,0,0,0,0,
159,-4.669082976800762,-2.6072427884493017,-4.993422164789091,-1.5616041903598372,2.103001852660002,14.231433376644652,-3.005762323808156,-8.87164414503034,-0.40787509117249954,-3.779664584944875,-0.42725536495693106,-7.059951172819783,1.2734794990548153,-2.298810843602773,-2.9536807503223237,-8.589998412508805,0,0,0,0,0,0,0,0,0,0,0,0,0,0,0,0,
160,6.418572393250992,9.385073643439492,-0.19662127733003487,6.211267772598768,7.607707719291843,17.402742363662853,3.8622629125383394,-2.8731523550620715,-3.842169887368051,-3.293434130620618,-1.1737577386852536,-4.840149246629892,-3.275761178715072,-2.137357773509912,-2.3602592212512548,-6.223514238415203,0,0,0,0,0,0,0,0,0,0,0,0,0,0,0,0,
161,10.15166122740738,13.707041441452322,5.591925885232991,11.339268098886425,11.872329497745532,21.019699186378297,9.774481502222844,1.106300241340481,-0.8366724889276185,0.20925331116606571,-3.758297537231492,-1.5968492273929797,-3.045550928514075,0.229522937178551,-12.514402993456812,-8.261933016544337,0,0,0,0,0,0,0,0,0,0,0,0,0,0,0,0,
162,2.6770280765916503,9.17666488229764,3.9492496620509954,9.916319749818651,8.178827385653953,17.053554740851016,12.533649584536764,1.5154921372800025,-4.143457929843045,-2.5251950851552003,-4.26505975808416,-2.919802916744203,-6.279743412231632,-0.40490206686760644,-7.1415113228976566,-3.5674722480812244,0,0,0,0,0,0,0,0,0,0,0,0,0,0,0,0,
163,0.1924543126175351,11.000123958003421,6.587366119626704,13.493553193567891,10.978084220521353,16.517401772262353,16.78873676248337,4.914977679755449,-0.2566572369431448,-0.6485178030983505,3.5127317078067612,3.000871811336694,-0.09473334825988644,4.369100289705742,2.6973064421590927,5.847240296359281,0,0,0,0,0,0,0,0,0,0,0,0,0,0,0,0,
164,4.391381283990871,13.809750395630829,9.348048896420424,16.01193332931209,10.835333550040332,17.87805674077289,16.433022706711945,6.412952825267173,-0.6702031408917932,-2.2946977182591013,0.995164139644217,1.8827886032039807,-1.1432888624938116,0.8174473128736537,2.2523481756458423,4.967192466939505,0,0,0,0,0,0,0,0,0,0,0,0,0,0,0,0,
165,8.365152621297216,13.54775858986504,6.141931383888316,14.307118565494633,3.091774742068086,13.933785301309513,13.347325589718416,5.270686654952026,-1.6498740258552012,-1.3227363819800573,-4.760538504305146,-0.7152752570796928,-4.652392615495337,-1.2474530457517758,-1.559711724355223,1.837591422282686,0,0,0,0,0,0,0,0,0,0,0,0,0,0,0,0,
166,9.731455367869035,10.026760476577714,3.9398104815698343,11.153141792081101,-0.7680142342616421,6.0323198264228,10.09892444976673,2.75461742861032,0.897226306305857,1.7249252474052348,-5.342728910432566,-0.14597869534058816,-2.333171517135778,2.252631485765285,-2.1732878527597066,2.5799932516027733,0,0,0,0,0,0,0,0,0,0,0,0,0,0,0,0,
167,10.323031294540534,5.728126733879698,2.2786077191788916,8.509446022118542,-2.8861979793756163,-3.6323805345476643,8.56072364790812,-0.17350487634288925,-2.71845488482312,-1.2195425189378675,-9.306652606328834,-3.5036579126273732,-4.486783475483211,-0.03090649473363527,-4.861126796225067,-0.013577906537987072,0,0,0,0,0,0,0,0,0,0,0,0,0,0,0,0,
168,5.202248140667486,0.8974745758402563,-4.760395184172721,5.102798378908734,-10.276834888566938,-15.24510189714493,5.184459431049113,-4.182921370739958,-5.988770059266129,-2.8499148645711676,-8.32185894683291,-6.49203619476407,-4.90016897102114,-2.6041002180895667,-6.0225468600584104,-3.9841510589983207,0,0,0,0,0,0,0,0,0,0,0,0,0,0,0,0,
169,-1.1906866422268934,-2.112406932940445,-8.976028369872967,3.7000288076447063,-13.936959600614614,-23.19815445414329,3.534806654720036,-4.43444766269333,-6.804211428847624,-2.9919114294991704,-3.8387690461872968,-8.901088803950465,-3.434427355488599,-3.6800693236052453,-3.9578310245025197,-7.072472892945091,0,0,0,0,0,0,0,0,0,0,0,0,0,0,0,0,
170,-1.0147159423150356,-1.9680819114213932,-6.8808543965134525,6.131381174335218,-12.416389213291712,-29.89923054806988,7.91756114870487,-0.020213574846291493,-6.400484834494117,-1.7571930486405865,-3.261957311680095,-5.788903420213874,-3.115147888408658,-1.4721087556878834,-3.5439065473577136,-4.811429888371698,0,0,0,0,0,0,0,0,0,0,0,0,0,0,0,0,
171,-0.12010372474269104,-5.560817049348472,-6.674816237997774,4.873727215225614,-15.651768996095178,-40.47228532609803,7.984463054439971,0.2584940223972829,-5.127207233621414,-1.5772636071586423,-1.3160919250397551,0.3667280265114695,-1.176795548094602,1.6528827596890157,-0.8408338697822071,2.350680532336269,0,0,0,0,0,0,0,0,0,0,0,0,0,0,0,0,
172,2.3560775535541225,-8.311641186647698,-6.163681609084385,4.30337882024946,-17.921974183034926,-44.89365361493486,6.817450990938632,0.9299297914103626,-4.131177031840693,-3.7165728341647704,2.6729796689384053,0.5558072037437425,1.0174569114937473,0.46223914516857434,1.5633288010749826,2.93943916988083,0,0,0,0,0,0,0,0,0,0,0,0,0,0,0,0,
173,4.069921637821178,-6.965470815993925,-5.118524052413992,8.286012615422386,-15.872229422089909,-46.550511393902696,8.218479449975675,3.1315559936451542,-2.5229524076564864,-2.610222708722336,3.962703015493724,-0.03529429711756116,2.0132210757210736,-0.2385576799519118,1.7690879514497801,0.5737844418613354,0,0,0,0,0,0,0,0,0,0,0,0,0,0,0,0,
174,6.228118493867846,-5.304346573147399,-6.05716238011681,10.355061111413567,-13.905001759342326,-50.4519709609338,9.164381965446644,2.795812019514539,-1.9990947356848352,-0.16155667630306603,-0.17474991918414773,1.6921493957990066,0.3826298276022797,0.5856725527146676,-1.0060601423123892,0.9576139777412251,0,0,0,0,0,0,0,0,0,0,0,0,0,0,0,0,
175,10.23751893422413,-7.077507835730039,-6.473056382530309,7.251296013625865,-15.02084817458317,-52.29827249397438,7.133228350181838,2.782870523230125,0.5836259606310144,2.1885692045563765,-2.532123877031516,2.507954622764599,0.38817360880289087,2.125165409812407,-4.61258313664495,0.3657180744566937,0,0,0,0,0,0,0,0,0,0,0,0,0,0,0,0,
176,9.12759884871804,-10.908435837417489,-6.660777945391205,5.53613742856488,-19.022397647751408,-53.58064900854347,2.67726195709578,2.879975915169383,0.2480266120111878,1.9204928476966145,-1.4795627256258665,1.4919053598220096,0.5419849591040311,3.2644230454592496,-3.754783269492119,1.5828384586391375,0,0,0,0,0,0,0,0,0,0,0,0,0,0,0,0,
177,5.929137261216418,-10.378115889146475,-7.008183359660114,9.399640273041783,-19.595833101287468,-51.60020343829638,0.5203198246902438,2.3247116432093264,-5.265038739558449,0.3810620195736689,-4.898885931860807,1.832253778670541,-2.1456487169536658,4.228752137194682,-5.2144477502415825,5.298526576797464,0,0,0,0,0,0,0,0,0,0,0,0,0,0,0,0,
178,4.1493084283688635,-6.4909398068883455,-6.128952854366132,8.660193742669659,-16.574306609538908,-48.21822452754803,-0.4467308865884476,0.5446140392000949,-4.880315180120817,2.530159855839358,-6.996532118877157,3.2592672043246615,-0.4872617424206709,6.477116707830611,-5.015686576578126,7.318664073753265,0,0,0,0,0,0,0,0,0,0,0,0,0,0,0,0,
179,4.933503240570172,-6.103089805179035,-4.643921242585363,1.0889848654746537,-16.205451770850896,-46.6245020296937,-2.013214969180554,-2.6625635804783925,-2.8143420159342867,2.0674343798607566,-5.1066154567128095,0.013022068185481572,1.8851935854130843,5.2664434722987075,0.925368855344594,6.937504027740561,0,0,0,0,0,0,0,0,0,0,0,0,0,0,0,0,
180,8.88248085549367,-5.596837721600915,-3.6860641948279245,0.46406617774154146,-16.991189589274526,-42.62465388416652,-1.160569385361006,-2.62568455899098,-5.396517052977153,0.2961704992516587,-5.523220272471761,-3.8952808912805637,-0.13576166405135126,1.8924509767532811,-0.5994037580744163,4.279317632859532,0,0,0,0,0,0,0,0,0,0,0,0,0,0,0,0,
181,9.954665770427841,-2.878005510743961,-1.87518025427004,4.239725842188529,-15.410201314216255,-38.597305676169995,1.3394663714848765,-1.7458561244632236,-3.965789005111887,3.383248656498992,-4.043414939442258,-4.889238146117165,0.4403715378627311,0.5743610058230857,-5.100473473763856,-0.9461393920572447,0,0,0,0,0,0,0,0,0,0,0,0,0,0,0,0,
182,11.329461477587618,-3.3422619181098714,-0.10880516369571858,3.1262836083073537,-12.981467219993725,-37.91244530545495,5.4812768465389805,-3.2690529038540106,1.914277819292657,4.817040156126062,0.41487414524360133,-6.268555225934662,3.1595758652885237,-0.4519469781160126,-1.1591148690217494,-4.126781661699848,0,0,0,0,0,0,0,0,0,0,0,0,0,0,0,0,
183,16.17334505437975,-6.4266624394406495,1.2030540909535272,2.349278182935368,-11.551321531678692,-36.55727833594594,10.241373205873911,-3.5843169866469875,3.9623385529328985,1.695546445838339,-1.101908975107623,-7.320295397224186,2.083964315192567,-1.780575818772789,-1.0749243290527382,-4.007759031531369,0,0,0,0,0,0,0,0,0,0,0,0,0,0,0,0,
184,16.119746817138594,-5.831704281802407,2.6581764211261003,5.2113915844934375,-11.349301898973927,-33.322130008363295,12.32623633141549,-2.3134990939762865,0.6531335210259286,-2.896095235746838,-5.914537147855533,-10.070202440742033,-1.475608426186568,-4.746552925569226,-5.209375583517225,-5.966743420095648,0,0,0,0,0,0,0,0,0,0,0,0,0,0,0,0,
185,6.001289376125282,-4.034481875011792,-1.851991685907656,6.320598682443801,-14.718686957784856,-31.497393964575227,7.788522971254302,-1.5120813016362327,-0.6876118958854889,-4.939897457007774,-3.5489140455663737,-10.515265973022235,-0.08178161501655978,-5.296614723022728,-2.1375461502001265,-5.995746535779028,0,0,0,0,0,0,0,0,0,0,0,0,0,0,0,0,
186,0.8007179996429947,-4.467563733795416,-9.128486806428082,5.733775158440292,-18.598874408392668,-29.291158025953624,-1.3599727579633658,-0.6996416132552774,0.8120553587053081,-2.7799574824867115,0.13050680523297942,-5.855969232426837,3.5367349560399077,-1.7184448209919694,2.833629287917102,0.2779201103465738,0,0,0,0,0,0,0,0,0,0,0,0,0,0,0,0,
187,4.092151836671199,-5.2156907576835,-9.297908492026641,5.434845920445397,-16.01666260911482,-24.81929439834483,-7.207773060982969,-1.723805174215233,0.6404424544635177,-0.12653031706337003,-4.614370663417546,-5.0055086165908165,1.0035567507307093,-1.0452897011742266,-0.6015105495162594,1.0816583327932578,0,0,0,0,0,0,0,0,0,0,0,0,0,0,0,0,
188,8.015097520247885,-2.601470061517553,-3.0125261210411924,7.072024211427621,-9.775115808668538,-18.640000223332812,-3.270918428602986,-1.7445337230328768,-2.6789804989566797,-1.0588097467213728,-11.852021011682034,-8.800114783244354,-5.79778604560509,-4.517666125580469,-7.672817906064756,-5.810637229514372,0,0,0,0,0,0,0,0,0,0,0,0,0,0,0,0,
189,16.500479090726955,3.575889918625947,4.147951741084752,10.911387069380233,-5.842074735203834,-10.85836843510253,4.169540097064022,2.37706889226326,-2.9247876433054323,0.5869488828383389,-11.035078755887422,-6.819380887960783,-6.115224023214939,-2.9805336401641505,-8.530215473637439,-4.892889591188183,0,0,0,0,0,0,0,0,0,0,0,0,0,0,0,0,
190,17.707471514253356,4.378072974763121,4.182532320134914,9.633602329838059,-5.475191743431587,-7.869099254895229,2.434414654731114,1.7795616309277378,-1.67995930464388,2.447758581837057,-8.350512133973627,-4.883322675037256,-4.013059297824633,-1.440464064309154,-6.5352220349514765,-1.486880081645558,0,0,0,0,0,0,0,0,0,0,0,0,0,0,0,0,
191,17.314067341610386,5.154577589762006,4.161458960791721,10.499799691537696,-2.690811039280451,-3.496676471379768,2.367769849721391,1.3299979329624243,-2.001358822070019,6.655045868697584e-05,-8.26393000052459,-7.8499822220664495,-5.327870038388504,-5.177357586404238,-7.189453433162332,-6.353323922402891,0,0,0,0,0,0,0,0,0,0,0,0,0,0,0,0,
192,22.85691464616443,8.247904812965515,8.414624391287559,13.487057230723345,-0.07424523900544955,2.003055704914278,7.8398310967252485,2.3722624931150627,1.796958050780723,0.41292292814720355,-3.727753498486651,-6.306981561690117,-3.2956627920596215,-4.999611001147782,-4.62130516945952,-6.8437196993995775,0,0,0,0,0,0,0,0,0,0,0,0,0,0,0,0,
193,12.176241934782354,2.196913512519245,5.590408286625287,4.652962033457364,-3.7919413976416685,-3.5563435587634906,5.752332914142947,-5.3884979877425,5.755704818891006,-0.10339510873898838,2.236100002941307,-4.7000795475274355,1.6469410794756998,-3.876761384648632,-1.072327036221537,-4.302742249262348,0,0,0,0,0,0,0,0,0,0,0,0,0,0,0,0,
194,-0.43746202808018353,-2.154616998779119,1.9616943352987146,-1.4905709818226178,-5.4672479946420935,-6.353685021875165,2.8301194796696407,-9.04250737092779,3.7875795285164457,-5.790321164597445,1.9986446360739532,-9.821472799886555,2.3941838430834865,-7.53487322912528,-2.781732704539599,-8.50254291261902,0,0,0,0,0,0,0,0,0,0,0,0,0,0,0,0,
195,6.4871261270549,2.561452307156273,4.109860329703166,3.066344383384468,-3.150223677940108,-0.9840327475818658,4.748635412515682,-5.26943010304257,2.330939618859995,-6.0627445325907985,-0.9578229661816242,-10.300699014612656,1.1109423914377237,-6.489128771257481,-3.8898341592814702,-7.82678298440933,0,0,0,0,0,0,0,0,0,0,0,0,0,0,0,0,
196,13.842967139230993,5.270356452058451,8.066434512003081,4.574433927002509,-0.451736852716083,0.1487344000390607,7.0776361214999,-6.910049582496638,4.3790069836213235,-1.5384067445239022,1.3029118062664464,-6.292569569151624,2.0885990216047396,-2.0870629392866906,1.301045730880162,-1.4673374578924188,0,0,0,0,0,0,0,0,0,0,0,0,0,0,0,0,
197,13.65870072843159,8.303879837371074,13.450639038180826,7.1504247218997,3.4829311564213015,1.5041898342728863,11.722615003998847,-5.92567756033554,6.257200289909605,-0.2834703889730523,7.117987009455543,-6.034469189964524,4.334009802549929,-1.7159839347711134,4.845659274593505,0.16990206069602865,0,0,0,0,0,0,0,0,0,0,0,0,0,0,0,0,
198,9.945084855334699,6.350613098670387,11.073009389311302,7.741077052946455,-1.6025242732184068,-0.9712941686724545,12.683662909231401,-3.037282756066668,5.099864839165246,-0.6215195640201259,7.129810012639615,-3.93641447721072,3.6870905811830994,-1.323330122276932,3.8233830955570838,2.805478667070874,0,0,0,0,0,0,0,0,0,0,0,0,0,0,0,0,
199,5.247348671050492,-0.10188098443151006,3.940009964515938,3.103910300048746,-9.785025070009361,-7.511041932369923,9.438561424827864,-2.730348680948751,3.5315448878953504,1.15549214810423,6.74029985098963,1.712623442926546,3.119402913170891,1.5815793883258173,5.95446554317893,7.480479637321357,0,0,0,0,0,0,0,0,0,0,0,0,0,0,0,0,
200,3.4926099653010887,0.27316616914411895,3.696713821109177,2.4624121365743417,-7.785169858831138,-6.203142935703296,5.259182545753767,0.8092687359725153,2.21525088837506,1.118380540338542,9.09329897614901,1.7880912590336635,3.163685079067651,1.4892005185593824,7.316443724854011,6.093787754676464,0,0,0,0,0,0,0,0,0,0,0,0,0,0,0,0,
201,2.4895751335820364,0.6359712189678248,4.440720610791414,2.4367499264615198,-5.012045276719476,-3.3500404858579227,2.822959131614372,1.5706093587879026,1.5522288761343006,0.4706586671064201,5.8349264836564885,0.05428444892720563,0.6916310962793162,0.5412539142221959,3.4517067087844033,3.746090028054027,0,0,0,0,0,0,0,0,0,0,0,0,0,0,0,0,
202,2.854218568305214,-1.2725640069317166,2.4625939715967533,0.7904377168716854,-5.591578563322877,-3.33812709269033,4.226310736889159,-1.7346412652022039,4.251526993578615,2.648913899336904,1.701504310991604,2.4400301546649565,0.6742374305180476,2.7226735444214967,1.2720595414116893,4.799017665172264,0,0,0,0,0,0,0,0,0,0,0,0,0,0,0,0,
203,3.7021690938977247,0.9271743220989546,0.20033354673947024,0.974776775435575,-5.075135322491293,-2.188388687108775,-0.4138653810504458,-2.2485979889470076,2.925603417225801,0.5106491068143484,-0.7185475314133782,0.18745704679470165,0.887628198235106,0.739995497567925,0.40793359935579687,2.4280605198089127,0,0,0,0,0,0,0,0,0,0,0,0,0,0,0,0,
204,-3.196238086718745,-2.485189483632314,-5.634254875823111,-3.7083208768945006,-7.485685825378002,-3.9960417512312354,-13.090582739912819,-4.944347655530349,-0.6696765030480094,-2.426486931048551,-7.265354850320941,-6.084439530182646,-2.357396602641188,-4.233297431095174,-5.850591667148429,-4.9592958346567,0,0,0,0,0,0,0,0,0,0,0,0,0,0,0,0,
205,-7.600059195432944,-6.71558552821466,-10.676894353718248,-8.143343544332282,-10.111130025437637,-5.545414262164925,-15.601775305640816,-6.753697195809092,-1.5597107880105696,-0.6180527741644468,-14.166824786973418,-8.801732518505759,-6.260111353025813,-5.672123288670917,-12.786520147593123,-11.17292610562222,0,0,0,0,0,0,0,0,0,0,0,0,0,0,0,0,
206,-5.1780305280536805,-3.0874939102767645,-8.590742702872761,-3.7715924986192757,-9.27777166042537,-1.507381975921163,-9.527446658440223,-3.0423244871757955,-2.978981441089161,0.7857016765114295,-12.320329775394402,-8.687256974266951,-6.099971000175259,-4.652286799830364,-12.384527763609512,-11.697800099867665,0,0,0,0,0,0,0,0,0,0,0,0,0,0,0,0,
207,-3.1564518661874903,-0.27049625017463264,-4.763053618698306,1.7916061352904613,-8.330162131001327,1.7187367412300176,-5.632254355860251,0.9256581312238197,-1.9039591497600483,1.2662627527861972,-3.8949358203405033,-8.258031315172303,-1.1872339868166222,-4.013345291294492,-5.703257352188192,-8.712699669831022,0,0,0,0,0,0,0,0,0,0,0,0,0,0,0,0,
208,1.1950013321926996,0.5923594052205132,-0.686726687729891,2.705619166176289,-5.965982128200878,1.7128314061032732,3.210017362013737,4.242853586014569,1.6342654928917923,2.6112618112920956,-0.12607431281769266,-6.131641049874986,0.9076060398196262,-3.877408336629543,-2.0152291520080077,-6.345445080634293,0,0,0,0,0,0,0,0,0,0,0,0,0,0,0,0,
209,-0.19213918379097095,1.6741526680635097,5.403916404035616,3.250451583332893,-0.8658366139449498,3.186637583280323,12.93986605855121,4.496506714157253,3.5547519641186085,2.7397335647719316,1.3545939356559096,-2.931168893261706,-0.12174736065735914,-3.6014269909469476,-0.543853240542628,-4.392009423576086,0,0,0,0,0,0,0,0,0,0,0,0,0,0,0,0,
210,-3.407066180463527,2.8637292103409386,9.967643043560743,6.598352800048026,3.9891701039647742,7.737277053737547,17.237014227699085,4.030737954622193,7.388585141911143,2.4156146029978487,9.706149395605841,-1.7259681712024744,4.607373254833689,-2.7404571829048727,5.81961407078661,-2.8077292151477367,0,0,0,0,0,0,0,0,0,0,0,0,0,0,0,0,
211,0.01327533730222541,1.57180631466386,8.49694504996704,3.784487473912172,3.243712515925651,7.254916898427105,17.77040769103231,4.200814863628008,8.765944058167069,0.4781571917484868,15.548676142985238,-2.723003279405102,8.466685678249345,-2.5856340809393714,12.23880803425884,-1.7262675298206727,0,0,0,0,0,0,0,0,0,0,0,0,0,0,0,0,
212,-4.85729328408727,-6.7622806762806675,0.6260731075482866,-7.003652905508261,-3.520198195744893,-0.8402996051351153,7.236923843704677,-0.9155162593515236,3.2661751749676355,-4.196229353801815,10.740775987458374,-2.525445772871027,4.755874873299128,-3.220483920044046,9.977755027615332,-0.4844017608229678,0,0,0,0,0,0,0,0,0,0,0,0,0,0,0,0,
213,-7.6959313067122075,-11.993020815802222,-5.9651326504951,-11.85144903720154,-8.300509625125564,-3.4352848078524545,-3.0117354582991425,-4.212523310390875,-3.0283417587497468,-7.011793374084673,3.8186698522023494,-0.8894840556921864,-0.09579989652793941,-3.3009596726837955,3.7104831629404558,0.5866020584710077,0,0,0,0,0,0,0,0,0,0,0,0,0,0,0,0,
214,0.6930745877828599,-6.207884343653099,-5.083821100273003,-6.8709388197440155,-6.496717212087514,4.633331846799134,-0.018220773340225094,0.5917779226993503,-4.241005687171743,-4.047879199848161,0.17727422184380082,2.00319001397321,-2.347387997555174,-0.6086487103285165,-0.8640621710277969,1.709121670781642,0,0,0,0,0,0,0,0,0,0,0,0,0,0,0,0,
215,1.2376427234324083,1.830525152869427,-0.29375740952897544,0.5184136529001222,-0.5639060742398243,13.59392485938813,2.362497749475935,6.002663665166967,-1.5864495804124283,0.8804354970830666,-1.432679199645296,6.761479582387752,-3.2983805218417466,3.6392824651390647,-0.455973177485987,5.81091337025562,0,0,0,0,0,0,0,0,0,0,0,0,0,0,0,0,
216,-0.4124384105174457,4.402636525127093,2.550692390210717,2.1840719414561036,3.5914422630603937,15.656762371863284,3.1632195965303964,7.512842937213843,1.172873409464371,4.248956697200131,0.5743883486404222,11.497277335634692,-1.3300253714626038,7.1385203986495895,5.140562586099753,11.605155609182528,0,0,0,0,0,0,0,0,0,0,0,0,0,0,0,0,
217,2.7126303751151966,1.9315151342828472,3.763548563108662,-2.3113926396223228,1.5634749645692345,12.37392467327308,5.294048390210513,5.521354900143514,0.14363987085784924,1.6246834441168336,2.729417285247119,8.430399144738963,-0.4593723494936266,4.272084065986758,5.8084801242324335,8.321273064754084,0,0,0,0,0,0,0,0,0,0,0,0,0,0,0,0,
218,2.6182243749037895,2.027224521413096,7.3040217426942835,-3.4861806371059814,0.6490031752651078,13.363897224157538,7.174416593914685,2.9898970632119237,0.6217515687911046,-2.076529421129796,5.998185068858605,3.2437735301351935,0.9517372163060385,-0.5777733288758524,3.1173543149887255,1.951768027279631,0,0,0,0,0,0,0,0,0,0,0,0,0,0,0,0,
219,1.2803339224193735,2.355593308205904,8.4047908700209,-4.432210360214935,2.282982657333072,15.925596230015483,13.21635562191333,-2.064221357971409,4.502014329722428,-0.6921239020187491,10.869153124190372,2.6317175358342024,5.74930773113928,-0.12257258889631295,7.707427632902041,3.322797322770265,0,0,0,0,0,0,0,0,0,0,0,0,0,0,0,0,
220,0.47413417894946974,-0.2741432134624944,5.672454008907662,-7.226142215842955,2.1785519630895376,14.862044826387423,11.405586749274171,-7.815425166985687,5.923305017282846,0.6294502980305285,8.748845539600863,-0.9285706642630212,6.611557202819691,-0.23718244866578253,8.16190369164827,0.509484367610562,0,0,0,0,0,0,0,0,0,0,0,0,0,0,0,0,
221,0.37019051691468974,-0.5696103349394193,4.321815042947065,-6.454500909288313,2.756374722746134,16.18089936059031,1.2496053336795327,-7.452421964432295,5.30662067709499,0.6094132387318947,2.7139674199863784,-5.253477007716667,2.910547056348097,-2.5039989350477327,1.2514801568762763,-6.250618092108871,0,0,0,0,0,0,0,0,0,0,0,0,0,0,0,0,
222,-1.3242524312164115,-2.7726408229790813,3.104374979742176,-6.298113352875776,2.1611076277356513,18.234392587930515,-2.6021888235453865,-4.283815508668377,7.031704090113134,3.557965963747172,3.088386351762337,-0.5242204540232649,4.395554825929665,1.4567045040632323,0.2799853627874249,-3.115339988869421,0,0,0,0,0,0,0,0,0,0,0,0,0,0,0,0,
223,-10.619822719963624,-9.702427155835302,-2.2320977468451986,-9.398558740344379,-4.675281962702892,12.416329215797308,-9.234380340789212,-5.022433011485175,2.015748647869227,1.5673059360764263,3.3179544019547613,2.881414941219356,2.4699503196282855,3.6616603912776426,8.680533017975161,5.043942157626099,0,0,0,0,0,0,0,0,0,0,0,0,0,0,0,0,
224,-11.42121354440938,-6.794958223897428,-5.465518175941508,-7.173090172395508,-6.134612476109576,8.920828308964238,-10.800376484822689,-3.1830111547953965,-4.472212296332778,-1.8063787018994972,-0.06864796864249012,2.137528744434624,-1.7488133805600938,2.546791295523736,9.159662304742296,5.982355943554338,0,0,0,0,0,0,0,0,0,0,0,0,0,0,0,0,
225,-6.244157341177722,-3.6130066519048576,-0.5468847500595917,-4.186965228368711,0.6025221800616558,14.99341184844692,-5.064288378751009,1.0492075426108975,4.74505010267454,5.243371682663806,-0.9056574270977062,7.572465293329245,6.090036698762976,9.054035118837497,-4.910431664450609,2.7101655556463853,0,0,0,0,0,0,0,0,0,0,0,0,0,0,0,0,
226,-8.489173913332602,-5.198832927192594,1.2955684529714535,-3.9636820295259474,1.0617902957443965,15.537083702200357,-3.603414191123525,0.5363788387576154,3.996846415065292,3.386835448176832,-2.5595263717056618,4.908345440922709,3.3927716023661283,6.598901855048776,-0.7852493386187156,4.481739180849242,0,0,0,0,0,0,0,0,0,0,0,0,0,0,0,0,
227,-6.3532682373446185,-0.0915528924092186,-0.48636207796850073,-1.457716850391078,-0.3802657567958869,13.316378610360049,-3.178946436958311,-1.1995098659460945,-2.390786046778171,-1.0558022901806332,-2.5171995968140397,0.9961771215276372,-2.6431071100801056,2.0550881023044134,5.237226547728628,4.37183522112064,0,0,0,0,0,0,0,0,0,0,0,0,0,0,0,0,
228,1.1760449623031866,4.633383068603649,4.7397175710422985,0.5634159417932616,5.814969943271917,18.213017173600193,-2.0480121739351773,-0.3407515126640486,2.289581297729587,3.626642105104896,-3.8296070136822546,4.179300968189217,0.23801594682398886,5.1158187961551285,-7.753346382466599,-1.398443289418137,0,0,0,0,0,0,0,0,0,0,0,0,0,0,0,0,
229,3.7993735744826753,8.701038340876366,9.531861048526181,3.262576982592183,13.641182664280295,22.229212332685652,2.1006133477426947,3.0766212744623838,2.309621850046362,4.035425874189521,-5.575704368783615,2.215537663981376,-1.6486333894684861,2.6416746247798493,-6.818977563210325,-2.2458437221341754,0,0,0,0,0,0,0,0,0,0,0,0,0,0,0,0,
230,-2.0456689066652842,7.1969741921766825,5.746663551395545,1.939434841778004,11.570042277165555,18.42073787100705,-0.8458654447597755,1.5490893894621056,3.309258123551338,4.1884101675937515,-0.3805660556035466,0.8871627910527593,0.6695482435471121,1.3822261067659305,0.3793218235032647,-1.250317362942447,0,0,0,0,0,0,0,0,0,0,0,0,0,0,0,0,
231,-2.8998032378414758,3.170445443385666,5.517670292047395,-1.995236941622606,7.74073362496096,14.45999113149109,-3.9558956071693414,-2.6750504229366676,1.9826096112561977,1.2740423700634693,-2.314429322217407,-1.2310265645344138,-0.6661351509652249,-1.3634793947336377,-3.8891436492234313,-5.734932992055071,0,0,0,0,0,0,0,0,0,0,0,0,0,0,0,0,
232,4.948941080539358,8.43614847301836,13.440343980343822,-0.7697917358592843,14.445896232202823,16.412899063595276,5.70655049426613,-0.07989002637245157,1.275505911337838,-1.1252970144479981,-4.599616931803757,-1.5736788086553517,-2.7260658272618024,-2.8659798743176275,-3.7618590792734103,-5.502234838599782,0,0,0,0,0,0,0,0,0,0,0,0,0,0,0,0,
233,1.7627478173954287,6.670563530646156,13.104266226811019,-5.10463647658602,16.59123590783526,13.185521681870767,6.629453532413651,-0.7465600761804065,8.560627988280586,2.24078115864204,5.795995717691115,2.6361541335646805,5.687496306891266,2.3987158453426716,3.62259668621882,0.8776013883325824,0,0,0,0,0,0,0,0,0,0,0,0,0,0,0,0,
234,-6.265228271779497,0.40717602955265164,5.633714481830862,-10.378417476231057,12.178158707350002,7.773672741348285,-0.9831728968652982,-4.484210533157471,5.357614994429344,-2.6621420968646454,7.947364860390961,-2.2234073358565993,4.735464125791662,-1.3824108757851157,5.635826002200465,-0.8568068340787558,0,0,0,0,0,0,0,0,0,0,0,0,0,0,0,0,
235,-2.444527902221566,7.1689382640994275,6.249711048831134,-1.8014632279111638,14.69491042808168,13.731312868639183,1.0305847271949915,0.46977725268363457,0.18143876385777702,-6.009545027947766,1.217587171371008,-4.647589499956709,-0.1836140753533364,-4.534578738588692,2.840886294437894,-2.485183787987304,0,0,0,0,0,0,0,0,0,0,0,0,0,0,0,0,
236,5.254972583630515,13.251960380265793,10.102144979052333,6.856326549542903,17.984020247317652,20.607015515707417,5.439105865064853,4.350759682004174,4.640784926378942,-0.13585114330901504,2.008246770717909,1.6613132100768055,3.322360700278658,1.586666598404225,4.875128639653182,3.5393093636002906,0,0,0,0,0,0,0,0,0,0,0,0,0,0,0,0,
237,5.472647123452401,9.138570706481158,8.138992968143496,3.9247120214761857,16.53143223718208,18.95616691674016,2.593485263536774,0.731669988930328,5.200058485034088,-0.23864439674953175,1.99916069275665,0.2842499373371048,3.2808791819737593,0.945734343314129,5.033788797417401,1.8102698774137131,0,0,0,0,0,0,0,0,0,0,0,0,0,0,0,0,
238,-1.5265967964318534,7.289800157004667,4.844890365383973,1.859352629169301,14.324787830419535,17.054771923071616,1.7881050154295473,1.6103021053174977,1.4750757954075588,-3.675471756066379,-0.4196762188525227,-1.5177780395032734,0.8109862439203717,-1.663696231124245,4.34219785905397,0.2521620057496931,0,0,0,0,0,0,0,0,0,0,0,0,0,0,0,0,
239,-4.94918176963111,9.745729444781738,5.728882505436641,5.069428995109654,13.245780623134866,18.56143120822665,7.410129668820137,7.767259219332164,1.3733940091169474,-0.4402016146224419,4.319786682134206,4.37437150621431,3.4686459792653146,3.081956511745407,9.762257671212069,6.512351107502139,0,0,0,0,0,0,0,0,0,0,0,0,0,0,0,0,
240,-1.389335310914639,9.844544201148008,8.253682965951556,4.97144760591549,13.794606199913748,19.1061887248971,7.302160163988361,9.032497553092288,1.8072395681547095,2.9413956120806555,4.230967472934804,6.45035975515329,2.4717624137342167,5.163115385059168,7.584245938302495,5.46470577215822,0,0,0,0,0,0,0,0,0,0,0,0,0,0,0,0,
241,-0.4406147659319828,9.52626797313437,9.184916727351526,4.403757338853492,15.866137299992648,20.88006737102139,2.3780387528279228,7.125231512740875,3.07345337308193,4.817127559777689,-2.9198818731588982,7.342640724798345,-1.5310599425548403,5.260174714367896,-1.6299272416186334,3.2553781294352446,0,0,0,0,0,0,0,0,0,0,0,0,0,0,0,0,
242,0.6234876082392908,11.879998822396193,10.287872254447466,8.844766177868085,18.842759953188427,26.026835078453757,1.5764065375128773,7.55283344805863,4.482512418331626,6.149808554246849,-4.347663027461021,8.732001550857081,-3.6973909726658634,5.331651708902777,-3.986466677841231,4.0456676898841835,0,0,0,0,0,0,0,0,0,0,0,0,0,0,0,0,
243,5.886210609091027,16.15496645034388,12.268248094081201,12.982088755155097,22.658471696372427,29.79859642799483,3.6922356933013027,10.450890101176272,4.391102448215907,6.122128523428113,-1.5285828571311022,8.190947407743787,-4.4344827079106794,4.0064869659655935,-2.6676469146670003,1.2077683563462287,0,0,0,0,0,0,0,0,0,0,0,0,0,0,0,0,
244,4.064447406330192,15.65270062875896,9.368412737833951,8.987755118124387,22.663284352324908,26.64793490159779,2.681189076350609,10.032341736140305,4.805527987044945,6.071026000021318,0.3085994152314111,9.178044943253642,-1.873971012952718,4.7423157574887265,-0.45484803979587873,1.1817423926788675,0,0,0,0,0,0,0,0,0,0,0,0,0,0,0,0,
245,-1.753511438456627,10.826052266046307,2.056348269578381,0.7429624317728099,18.542175125543505,20.772571412014287,-0.10600153138569368,3.897966223839994,4.14576662239933,2.8934234936728647,-1.4921765735302697,6.2888085108855405,-0.3931058685998092,2.884034721066655,-3.088011424346151,-1.9400246869586002,0,0,0,0,0,0,0,0,0,0,0,0,0,0,0,0,
246,-4.031060430671886,8.39343243833532,-2.4528900073587194,-2.827425340270292,15.740135832394035,20.007530564795193,-1.6358901725407122,-0.8534295881953131,3.0354095445505216,-0.8720280572710628,-2.08639240797948,1.1232767860284145,-0.41778477347645016,-0.9420850219251502,-6.122787413950384,-7.9418447395186575,0,0,0,0,0,0,0,0,0,0,0,0,0,0,0,0,
247,-6.791192291277611,9.111356603935203,-2.88877262573877,-0.19178652406100127,17.28793887613388,21.025635322390716,-1.4309516966222198,1.6443097708568324,3.8490176663179128,0.8251391654884017,2.545694355660078,1.792063361821329,2.567402995094344,0.09557037565557636,-0.7877046775539398,-5.93902305078272,0,0,0,0,0,0,0,0,0,0,0,0,0,0,0,0,
248,-7.177049658145444,9.767825043999917,-1.259561179902917,2.340918655568885,19.16017126361722,19.116777811715785,1.5085972989183354,4.9235563530491895,5.74590197303748,3.8411440936214625,4.013491339171208,3.6219971471754295,5.099120330493207,2.6707732637033885,2.733780985167428,-2.9555909281339083,0,0,0,0,0,0,0,0,0,0,0,0,0,0,0,0,
249,-3.562799362536884,9.076342649480178,0.6117708780759168,1.201610298229113,15.604014900890865,16.06137255461094,3.339629443049322,3.481248771119863,6.185027664481286,2.893723097581624,2.398829250497794,3.3086207024509946,5.6567091135702015,3.5565937785522976,4.42690084149951,-1.0683741344068987,0,0,0,0,0,0,0,0,0,0,0,0,0,0,0,0,
250,-4.644479071628799,6.6201104836622005,-1.7292411431706167,-0.4518308792650485,8.00118688823776,12.603517443040515,2.1604787150144524,3.202576046922209,3.0022098955490897,0.4074286950993624,2.4938959750853282,2.6610503255355766,4.990769042317151,3.361282464529033,6.92461205633218,1.8525990059378572,0,0,0,0,0,0,0,0,0,0,0,0,0,0,0,0,
251,-9.590668296707129,4.506217136761723,-8.729359383119034,0.4099158474450584,-0.6932196532344821,9.052437900680125,-0.24534038733168373,4.7968102507507995,-1.2707836281055371,0.798751170691304,1.4688055430266154,2.6254074667982508,2.063961865574825,3.4598066095407916,5.1076317971262135,3.0590086014141087,0,0,0,0,0,0,0,0,0,0,0,0,0,0,0,0,
252,-12.139798634481817,4.071816530061,-14.406957867937125,2.4305341147188835,-6.136078353361963,5.604781953128681,-7.466119684321885,5.001088667519498,-5.148239538419375,2.420594398674467,-4.417623456165998,3.3479433996194636,-2.805163662292525,4.552642035591763,-0.9167590743081888,3.467281689817148,0,0,0,0,0,0,0,0,0,0,0,0,0,0,0,0,
253,-11.693122752199088,2.1434594249210392,-17.51673917880379,1.707832939524395,-7.742447726191516,-0.3718218120844412,-14.872409139552023,4.80224136503544,-9.012359512376555,3.170960759564956,-10.209316873790696,3.725443807044769,-6.701006804415272,5.564549686010114,-5.961880152308126,2.44569902614949,0,0,0,0,0,0,0,0,0,0,0,0,0,0,0,0,
254,-11.908972967466072,-2.53265521639183,-20.497965836968383,-1.8411877955492848,-12.064886656892671,-11.52917668976436,-16.50630050512346,1.68374679195197,-10.322962286719989,3.4307359245261964,-11.963931876256257,2.407041824115556,-7.7950487786562555,5.431668525474368,-8.044445655015995,-1.2756699275481513,0,0,0,0,0,0,0,0,0,0,0,0,0,0,0,0,
255,-10.07468007565695,-1.2775623349763547,-19.468179222792962,1.0262453569309846,-13.398756436137615,-21.764804194000224,-12.018795478100042,1.9281160191682556,-9.908936607850418,1.705598104173589,-13.929376912555892,-0.2577956503696335,-8.324688288747417,3.5999175141862914,-10.13157721063164,-3.854697836188309,0,0,0,0,0,0,0,0,0,0,0,0,0,0,0,0,
256,-5.231405481928507,3.1760012688728096,-13.5997146016987,7.09784591678806,-9.441743045201939,-27.938331225779827,-2.753363356548789,7.460776923577265,-5.813736691102299,1.3481208660800554,-7.317612325505163,1.3328458385110125,-2.661738917894098,4.485162288323014,-5.258506171773046,0.17028691275977614,0,0,0,0,0,0,0,0,0,0,0,0,0,0,0,0,
257,-6.212740813400453,-0.8918552075526307,-11.320271280459622,4.642939529291668,-9.94657037422639,-38.38364633939224,4.258296894519347,5.42227195159073,-1.844602085828548,-0.5392975452739819,5.952647380674907,2.5507578394873214,6.161530043092778,4.212469699994529,6.791502438754307,4.412512181720416,0,0,0,0,0,0,0,0,0,0,0,0,0,0,0,0,
258,-9.35669061757413,-6.248203149222768,-12.86163834233339,2.6153593177949865,-12.159358674709532,-47.37839304987497,4.84024752040515,0.18557621870137808,-3.83202097469173,-5.7787166291262935,8.58759979197278,-2.5115039270438118,7.8652926713163716,-0.8980560317667923,9.63058087698483,1.5932354387277272,0,0,0,0,0,0,0,0,0,0,0,0,0,0,0,0,
259,-8.017457546345195,-7.42066910493638,-13.435080805757458,4.964755013791109,-14.42946535519911,-47.64369527077054,0.7861463068799743,2.0324778552208755,-7.971492476817254,-6.391480215349382,2.7326324061991976,-6.676785556416412,4.047021743408287,-4.293756760153499,5.4103353659672955,-2.024643538612899,0,0,0,0,0,0,0,0,0,0,0,0,0,0,0,0,
260,3.240770184452522,3.65214801913325,-12.598469969505834,13.97498667331822,-13.666202586147502,-43.906335655894495,6.137544438207385,14.6027730682028,-8.113946933954029,0.7607012063153071,0.47152162139176923,-2.132844870494104,3.3732910781324605,-0.8240992087275032,3.6854325403466426,-1.537465125826356,0,0,0,0,0,0,0,0,0,0,0,0,0,0,0,0,
261,10.934132970602178,15.327616566350905,-11.656658975789693,24.460046405445546,-9.169778931429985,-39.75012326298903,10.550515287130267,24.580847555514374,1.7705121914581703,12.739996887359204,4.1604870879200995,8.461916308346659,11.652814157400105,10.016772719488738,-0.8101409120510912,1.1474259594707954,0,0,0,0,0,0,0,0,0,0,0,0,0,0,0,0,
262,-9.983819856118323,-6.915059938174366,-19.369718730861912,7.298013580669888,-19.6788290071154,-48.36518846240926,-14.128235946329148,7.414329045275213,-0.9961628664291959,7.433099962858872,-1.3809120821538752,2.7628972069878035,4.312769102992373,5.928424321364831,-0.38845945837917917,1.0066729677876496,0,0,0,0,0,0,0,0,0,0,0,0,0,0,0,0,
263,-16.43644374557545,-16.430414115970493,-24.794769887150206,-5.019411656572153,-26.57260461258961,-56.43273943719667,-22.932405218403282,-3.296681525845777,-17.22334062143541,-8.581371504321774,-8.695980334935358,-7.41907570608084,-12.584345586671471,-7.207745271969474,7.330308050019181,1.1024095872854738,0,0,0,0,0,0,0,0,0,0,0,0,0,0,0,0,
264,-1.9134319753680913,-1.6200701601979475,-18.112468331194176,7.721702077403911,-18.09207677213491,-47.29623837927456,-7.121195991941875,7.395388152356883,-9.970199049318461,-2.02992166727942,-2.1111438056444234,5.48948847695844,-3.7350308277374618,2.327133838654616,4.51589123064049,7.084595715738607,0,0,0,0,0,0,0,0,0,0,0,0,0,0,0,0,
265,-3.518850095924929,-4.4493919611412736,-17.724347665187416,9.520231380882688,-18.67272926995178,-43.81697415559094,-3.344829695901545,7.50331078779157,-5.981209779329541,2.307659185289718,-0.7791443941269058,11.194223847563737,-0.6461120339598709,6.938355345519716,2.7408909455981805,10.541672146373386,0,0,0,0,0,0,0,0,0,0,0,0,0,0,0,0,
266,-2.3797788132820763,-4.212501114108385,-18.473878104938382,8.93840220803746,-17.860157441323686,-41.70201188352972,-0.23548277791262606,8.09442739054272,-7.912848761684419,1.2330741793885953,2.197353743084003,10.387734121508792,-0.9351871463411657,5.114693159491779,4.133899749288205,9.918592071518152,0,0,0,0,0,0,0,0,0,0,0,0,0,0,0,0,
267,-9.848882152683785,-13.749867886573323,-19.525996388197292,2.476474464668204,-21.615115529443653,-42.44364835444725,-12.647077796636985,4.53666475403724,-5.954416401337402,1.7101288142459836,5.579736051850999,10.303522334476872,1.8081683266050819,5.368357647042856,7.475702039898509,10.144509725321276,0,0,0,0,0,0,0,0,0,0,0,0,0,0,0,0,
268,-16.255277124637015,-19.767531031567287,-25.08325860800252,-3.4795297760897306,-27.02936175033668,-48.19144086562691,-18.922124043448267,-0.875223938725469,-17.423341020338743,-6.644851631772849,-4.295984721245693,1.1258089024171607,-11.03403182105602,-4.063402168110811,10.635463878978248,5.8875731194902325,0,0,0,0,0,0,0,0,0,0,0,0,0,0,0,0,
269,-2.361553701263311,-3.5373529785930202,-18.080648691983185,7.000894783958511,-13.710434071600226,-33.50009284472384,-7.778841124693628,5.976489459502469,-8.031788599613025,1.0057639293014962,-4.9309574570938555,5.013972033928089,-3.894976756882585,1.349913093626748,-2.8370144142251377,-0.7922407891327685,0,0,0,0,0,0,0,0,0,0,0,0,0,0,0,0,
270,4.066741834003796,0.8494256219488605,-9.105783066768563,10.877064873304715,-5.354507065420205,-21.65334001859083,-10.206258597155706,6.227176648329058,2.2561146630749676,5.687455551144497,-0.49461126449200243,5.366013423414646,4.818371244487761,3.8302126078247287,-3.1578652413658794,-3.021564700678845,0,0,0,0,0,0,0,0,0,0,0,0,0,0,0,0,
271,-2.1236583822300297,-8.07754641569581,-11.811137165219709,2.070789801762782,-11.940483720761332,-30.322753044902687,-10.921040786551373,0.13113695106304846,-8.65584620477004,-4.819029172103056,-3.3651719966012146,-3.7001359684779445,-3.776973251480346,-6.777255842771909,5.095007480048835,-3.7699989025868694,0,0,0,0,0,0,0,0,0,0,0,0,0,0,0,0,
272,-9.372412029356092,-16.544895782854653,-16.061979902225755,-6.59210289391398,-18.78088601634645,-34.278355878026105,-9.40945402977082,-3.074737816256966,-10.956395406462072,-6.157721554992786,-4.885118033645283,-2.9512753299750827,-4.075533692485575,-7.054074062741996,1.5558182963217355,-3.3990894932036557,0,0,0,0,0,0,0,0,0,0,0,0,0,0,0,0,
273,-0.6585854816494834,-3.196996835895119,-10.273762637034562,2.839071063415486,-11.235401998801471,-23.33316892008809,-1.7379732184302519,3.5279738726070855,-4.276328553183561,0.5695831732794403,0.4707606281658929,3.780362897556792,3.984901654311976,-0.20634647988419275,-0.39444311139805777,-2.504241985971364,0,0,0,0,0,0,0,0,0,0,0,0,0,0,0,0,
274,8.811111942625276,10.275450177092157,1.9975241711882346,13.44076313810295,3.782603519571783,-9.297427971864616,9.62307812805886,11.03910865978823,10.132519400179277,9.555596044283714,9.570634933559695,12.82357349630384,16.10913446900301,9.694050099658845,-6.050060652049233,-1.8756193756045951,0,0,0,0,0,0,0,0,0,0,0,0,0,0,0,0,
275,0.5817170755268792,-4.311079811169723,1.2400765499567434,0.951277526104825,-0.08651782128884289,-10.487399841904807,3.725173651605465,2.6344317867251963,9.251134742372212,2.4718605208980975,8.403499404891583,8.835789328751353,9.524631834459942,5.250150139747799,4.628535968951411,4.815254404136619,0,0,0,0,0,0,0,0,0,0,0,0,0,0,0,0,
276,-2.5844827143588662,-9.596895112232886,-4.493915182455504,-5.407422025446378,-9.41126742447906,-13.282771902315233,2.2397163139733807,-0.7943478649191631,-0.8102871248092498,-6.230242513022759,4.523763859882926,6.442137515557949,1.4028245638572656,-0.24636837418345436,11.468464631180993,9.987969075070453,0,0,0,0,0,0,0,0,0,0,0,0,0,0,0,0,
277,-5.690356484338514,-10.0070870661132,-4.177617774872541,-3.501157781384199,-11.949152903111072,-7.722374557576366,4.913636578918545,1.327188524256952,0.7891571487716931,-3.5325238472742946,5.8562608798934015,8.884568300423858,7.913264110229079,4.009228742701751,-0.38455506680438845,6.252832470239531,0,0,0,0,0,0,0,0,0,0,0,0,0,0,0,0,
278,-6.910806377976918,-12.487785691868368,-5.950127279951818,-3.2723735268263425,-11.567940971246614,-4.250087235454027,2.3950746891002286,-1.922518720271773,-2.043180883330045,-6.017133931372346,9.946655277967704,1.1978069562167235,6.47292088469171,-0.24752115718766277,11.087680873344528,6.085321843301251,0,0,0,0,0,0,0,0,0,0,0,0,0,0,0,0,
279,-1.2569087353865633,-5.0599381569592,-8.561993095437176,1.736030129373244,-8.131836792584716,0.6797331124324586,-2.790935699976046,0.5707550113910962,-2.9195308506497852,-2.7404154326516412,9.267730386007848,1.7128866680535104,3.479679528966834,-0.6809685211511081,11.24147659811997,5.445095779119095,0,0,0,0,0,0,0,0,0,0,0,0,0,0,0,0,
280,-4.514281105190303,-6.490437835623503,-14.484527037341659,1.3016647587498547,-12.357899656656526,2.946339055194745,-13.168976350421376,3.4406013193265217,-6.541256912322659,0.7427518265509185,-4.864264463971974,0.16248385192402282,-5.029529024018636,-0.8773453205985895,-8.50326169182134,-3.082584567829137,0,0,0,0,0,0,0,0,0,0,0,0,0,0,0,0,
281,-5.637813194558344,-5.972460092785436,-17.539144728170093,3.251525908234175,-13.07934645662652,5.059055126091938,-14.003786959790403,4.72666793818275,-9.696404341977459,1.5331957352865864,-11.476003928099713,-3.420409052415863,-10.187895183644876,-2.174171257844449,-8.223908044222718,-5.5131896365462065,0,0,0,0,0,0,0,0,0,0,0,0,0,0,0,0,
282,3.4361104072628166,7.432190817649484,-7.828479681231068,13.067933115371176,-2.2695688528383045,13.65977427986973,-9.110891135886831,9.451147967017942,-2.307351931413674,6.592475726386436,-8.986423306220217,4.938104241304327,-4.581007135022247,3.1923952304525223,-3.9220124378105368,0.5395318811668713,0,0,0,0,0,0,0,0,0,0,0,0,0,0,0,0,
283,8.859554063677475,12.333555417874532,0.7305003876157237,13.211019605127824,1.6546591306326732,16.401791341533116,-8.740055694163143,8.35203606560562,-0.15582645033901343,5.02629817478946,-9.277212204936209,8.247271886528445,-4.651163170988227,3.1801726984846326,-2.777566897599561,4.3814183053542965,0,0,0,0,0,0,0,0,0,0,0,0,0,0,0,0,
284,2.131206802892052,3.021266096398101,-3.2414420904252914,0.5019733367336663,-5.74775151896398,7.000618542939296,-6.759278980756278,-0.6916965099538359,-4.615168451884054,-2.5729579105928586,-5.842032489821747,2.681786252298167,-6.0711501331712086,-2.4946281956265324,2.1613912700278846,3.1898221098683726,0,0,0,0,0,0,0,0,0,0,0,0,0,0,0,0,
285,-8.846422179914626,-7.601796662570514,-8.982207446749035,-10.304873845230144,-13.210531262714401,-3.435269819302114,-6.60851113702256,-6.043874985817148,-5.671649778456876,-5.444618686637879,0.8602500852807022,3.620903410369653,-0.05825496650608386,-0.7150999334088333,6.693215137125606,6.708853355778727,0,0,0,0,0,0,0,0,0,0,0,0,0,0,0,0,
286,-9.256792964011538,-9.673667796174676,-6.925002454701913,-11.006191616183475,-12.53742750408151,-6.524251834084058,-4.695096999044999,-5.899332640242164,-5.196670020151403,-6.570736493934788,5.8882849451298345,6.584073794168049,5.2167005435930776,3.603831807246161,13.415854713169928,14.067380734139231,0,0,0,0,0,0,0,0,0,0,0,0,0,0,0,0,
287,1.6802220566078958,-3.555605594577841,1.3143150492016353,-5.567465840127159,-3.5961638243876237,-2.3242774778976276,5.292069904742277,-3.917289720034514,-2.2367327561696926,-8.974718894862662,9.11149369015032,3.104433831815278,6.55031863988108,1.1440613249629603,15.461752127058297,12.010188522458524,0,0,0,0,0,0,0,0,0,0,0,0,0,0,0,0,
288,10.171367428761904,2.126768880425523,8.655194297553379,0.6967791710745139,3.4479303732866846,2.607803087372801,8.736106198488919,-0.7000522770458879,3.8183819817397056,-6.97898223845516,11.241992813447503,0.8782082677288017,7.671757676879356,-1.5519811817134217,13.093674990053508,6.432075485504576,0,0,0,0,0,0,0,0,0,0,0,0,0,0,0,0,
289,10.105816855328861,3.7752504406538776,7.912072271572955,5.1488106146191015,0.7572863661259923,3.8242910254263105,1.8857204265553804,2.0635834773609787,5.113594797464076,-2.3910623035758083,7.56640022478964,2.5469156301100058,5.2083662292511494,-1.6285363272102584,6.917101232156811,3.4576729342547,0,0,0,0,0,0,0,0,0,0,0,0,0,0,0,0,
290,6.355940961364574,3.833982490667701,1.981479507774937,6.260608500822155,-5.1212881734780975,4.314582002963457,-6.070781512241531,3.979144115741807,-0.6556882603276275,-1.6521924325534503,-1.141770268617793,2.6510130198385546,-1.8958036941369252,-3.0011509577627935,-2.4393199319969856,0.3088058068910229,0,0,0,0,0,0,0,0,0,0,0,0,0,0,0,0,
291,7.631998152879614,8.154570445189563,-0.10836031311711469,8.663654207075172,-1.0927544955205803,9.850998992425454,-11.247350689903755,5.996584642325097,-4.430446262998759,-0.5848171907166133,-6.916818876395241,2.3626448686054555,-7.418772929506151,-2.5385687008935216,-8.533445457471139,-2.2186693289221813,0,0,0,0,0,0,0,0,0,0,0,0,0,0,0,0,
292,8.884057382746711,11.07605367888111,-1.948158090976071,10.26886894455994,3.3651635653696257,16.677296743602383,-13.641218291662767,5.667077624394972,-2.934056701626794,4.471827858269689,-13.114440901516026,3.5567252458307257,-10.961006601041332,1.2902112404437602,-15.245412863934533,-3.9357880951688893,0,0,0,0,0,0,0,0,0,0,0,0,0,0,0,0,
293,1.0087903442350026,5.233264499267282,-8.249277020646419,6.23508479177465,-4.105363331819118,15.480341812003934,-18.681652437126978,2.756887782606343,-3.5136337500830024,8.132374296772255,-19.595294155596864,4.787041761869663,-12.796745682814489,5.485278781391665,-18.843236307197586,-2.4564219350040295,0,0,0,0,0,0,0,0,0,0,0,0,0,0,0,0,
294,-6.026538316409784,-2.2572586077861487,-11.204733221209572,0.5843220888324439,-10.157301863543399,9.80720493904576,-23.79023562554736,-1.621921792319407,-7.511746051591459,7.012790714049007,-20.666981284714424,3.229601301356693,-12.0916399056544,6.323670113692518,-18.017751230037643,-2.3299478783919674,0,0,0,0,0,0,0,0,0,0,0,0,0,0,0,0,
295,-4.649271591602091,-4.185154169680455,-7.06646466753406,-2.439055831353894,-6.72115607517854,9.645165276254009,-17.380457059445167,-4.5054014919464995,-6.814320147199268,4.759852945185944,-16.423712999457976,1.1514309480527665,-7.964674798939065,5.053033058551733,-15.63446823361242,-3.598254774748444,0,0,0,0,0,0,0,0,0,0,0,0,0,0,0,0,
296,-0.14438070684690985,0.07714676026401435,1.2566575549314045,-0.5383486166424367,1.511478706833032,16.182681059045095,-6.22708161296131,-2.816218296065034,0.6672246790743515,3.8417727236867343,-9.090360676415967,1.1816075158164132,-1.5881994374853647,3.8018402092517825,-9.177259695533767,-1.415658683042506,0,0,0,0,0,0,0,0,0,0,0,0,0,0,0,0,
297,7.590209538332797,6.7125690548870836,9.353374462792372,4.10555935675008,9.509666062630375,23.456328521291763,3.3433576376049174,0.40972995424207803,8.184002112139382,3.4642301438029186,-2.4656966403170575,0.6343931434286496,1.2226181097690656,0.8183668237131236,-6.681177169028931,-2.7056762380877544,0,0,0,0,0,0,0,0,0,0,0,0,0,0,0,0,
298,8.287590900877262,3.873228428575281,9.562653383835135,0.7107727401341046,7.835722073160402,22.333217585542553,6.419982228346331,-0.055772239051898875,10.800468229601574,2.085597142248087,2.8769539797041688,-0.4573033408773739,1.878521620558324,-1.6649199779667825,-5.532634091340327,-4.982619093121562,0,0,0,0,0,0,0,0,0,0,0,0,0,0,0,0,
299,-0.5175645661517669,-2.12938543863305,6.061443719893993,-5.353307802932016,3.1632715950392134,16.91262372663983,0.13579508482057534,-1.5368594193791996,9.618278353241614,-0.21413174420968062,8.042788775460988,-0.6649141188481487,5.331547166773099,-0.8443932004427168,0.23705009408163846,-3.529978049944847,0,0,0,0,0,0,0,0,0,0,0,0,0,0,0,0,
300,-2.1616476376232203,-3.141216399882367,4.840901043757128,-6.581529915679045,2.311219863739657,18.406234129960964,-4.940376864132836,-3.7905713458343175,6.799542410576581,-3.060426133889006,7.312272517285445,-3.470094514202465,5.159123841275047,-1.9309794713209456,-1.3189063721376186,-6.315540715026311,0,0,0,0,0,0,0,0,0,0,0,0,0,0,0,0,
301,-0.7036837854849853,-6.589620846702484,0.10660498438601884,-9.446629508341859,-1.029498936152958,21.500544206876455,-7.790524660814846,-7.989990223058105,1.848658265614226,-5.94572229132033,-0.6688428415142305,-9.563320963244514,-2.894960014174373,-7.775977611207381,-8.16777504215204,-12.318520886293172,0,0,0,0,0,0,0,0,0,0,0,0,0,0,0,0,
302,-10.542446857057561,-11.387224872944088,-7.398121170132095,-12.630629162270132,-4.9671489731823275,19.562531020814696,-13.696623283829698,-10.054185577285592,-1.285968763890729,-4.727044788422603,-8.34275028942281,-10.580669500655684,-7.433290436177941,-8.7014706949013,-13.892910155448725,-14.250738090525385,0,0,0,0,0,0,0,0,0,0,0,0,0,0,0,0,
303,-16.476074906332546,-10.003650245553022,-10.620447052833383,-10.813029514317797,-6.521042299606224,19.08513611754867,-18.218685956916666,-9.374506106040144,-4.910660831300774,-4.39807749712071,-13.697680178228246,-8.024114129201152,-8.64536540608908,-5.911780192149983,-15.456225497680727,-10.375667517363702,0,0,0,0,0,0,0,0,0,0,0,0,0,0,0,0,
304,-5.287276667226102,-1.1278754090083467,-5.848336443251892,-3.655473111955555,-2.2550542436537704,26.093240994076247,-14.822608588623968,-5.929025946764661,-6.251883044792624,-4.122464347308654,-14.232363299065504,-6.248842952715833,-9.289629795408771,-4.456361050110612,-12.028675480037101,-6.017410462259571,0,0,0,0,0,0,0,0,0,0,0,0,0,0,0,0,
305,3.070462624923259,5.740585944501554,1.6069001374315448,1.3741279109239706,4.522396769625445,32.851596528143,-7.0736582804051125,-2.976532158105748,-0.9472652444811587,-0.10906716147584206,-11.81341243174359,-4.735467994970591,-6.990076745141337,-2.684823189517676,-11.212523465018283,-6.760405529463162,0,0,0,0,0,0,0,0,0,0,0,0,0,0,0,0,
306,2.116578722624258,5.3467203852035965,5.415792646150747,-0.47680903271845665,6.578066831068426,33.21547811531479,-3.8611488095714073,-4.201245268238608,1.6507176526855645,-0.42462223650625575,-10.709132542095436,-6.69351288942217,-5.931580342687436,-4.1860693597325,-10.566260414585244,-9.476584625594137,0,0,0,0,0,0,0,0,0,0,0,0,0,0,0,0,
307,6.793929065097963,6.805224810453211,9.76099291836227,2.0095202742871585,10.254190308445171,33.966135707689254,1.0497744836432723,-3.545689699531458,2.279484306654755,-3.059318943220976,-6.077492730365314,-10.075899971857929,-4.383227567734561,-7.76440575951823,-7.861646157426225,-12.005875492338951,0,0,0,0,0,0,0,0,0,0,0,0,0,0,0,0,
308,10.3345964986516,9.401213697432926,13.191101270922164,9.290317918671501,14.60679733279595,38.69497474432287,6.623188686571545,0.9525769123438792,7.083398289460085,-0.7801595240370247,-1.7580362197804185,-8.289455411730433,-0.8797791889297422,-6.870105830948674,-8.662557252695027,-12.041387059395797,0,0,0,0,0,0,0,0,0,0,0,0,0,0,0,0,
309,4.345891043399803,6.218208283555775,9.963701477545388,7.716433497499171,12.490983934640163,38.516738247885534,4.248290070434265,1.3128724537307086,8.517688396095565,-0.060189040512810266,-1.3944489795543298,-6.184450625289848,-0.05813305692373305,-5.669373796361821,-6.060325505203814,-9.209258189680131,0,0,0,0,0,0,0,0,0,0,0,0,0,0,0,0,
310,-1.2610445874692182,0.062083589549082774,6.216575895120645,0.02962622644638202,8.96445341057299,30.37923344883186,3.2573423498205756,-1.409381059804712,7.278632351829788,-1.2858703735286223,3.464660861164898,-5.073545551364786,2.9674246659972745,-4.530025927611593,1.034493264346695,-6.962229742777778,0,0,0,0,0,0,0,0,0,0,0,0,0,0,0,0,
311,-3.462734038107527,-4.602224865162064,4.552876358068568,-4.750813539836237,7.787779344624553,24.350271797341822,-0.6317993955654515,-0.7914534452464395,4.253759292127255,-1.537994988695285,5.2652354304093585,-1.8597502110203976,4.903357143225431,-1.1499273934121348,4.062504654882241,-2.926621976290954,0,0,0,0,0,0,0,0,0,0,0,0,0,0,0,0,
312,-4.9322880107495095,-3.8729273846502323,1.6283001214814004,-5.651943051510347,9.05100977937206,24.983277859641948,-9.593160402458906,-0.10473342528998586,-0.6865239948052271,-2.2097001792272297,-0.3777852231156693,-0.041459241729953966,2.10242107758471,0.9619767507239994,2.3782183913232733,0.25300330464027754,0,0,0,0,0,0,0,0,0,0,0,0,0,0,0,0,
313,-5.922095775914691,-3.033754354546936,-1.4330437427217149,-5.582127921050141,9.493847361969149,25.413732368909816,-10.545594880205943,-4.1366659842412545,-0.6001630739254944,-1.8459322740761452,-4.289089444291477,-1.511953775997044,0.05518114269282948,0.543103026239842,-0.22267427445496057,-1.3704128416003005,0,0,0,0,0,0,0,0,0,0,0,0,0,0,0,0,
314,-2.464066346629558,-2.955579581613833,0.17186565223299244,-4.034853828964952,9.54026052814892,25.482415737183402,-7.5890521429685975,-6.399853652840271,2.681188601238091,-0.7617616131135052,-5.77743147705651,-3.4134020931755864,-1.7450673438887372,-1.0803457185066376,-3.1691702398154966,-3.9342492167934497,0,0,0,0,0,0,0,0,0,0,0,0,0,0,0,0,
315,0.9634578212800875,-1.8096303744030067,5.229050182894344,-4.636640136545605,8.167258012562367,24.196043078836265,-7.4778276725238015,-8.055859229857488,3.0211062770456074,-2.4996667548545135,-3.0610738096834607,-4.8030038424001305,-3.006366234870395,-3.530765555455517,-2.1436367920124333,-4.991912140569248,0,0,0,0,0,0,0,0,0,0,0,0,0,0,0,0,
316,-1.7719606490722732,-1.4835461398701355,8.005921601491167,-9.523832735390084,7.2279994184165055,20.52227203653895,-4.3610604700756035,-10.81923109580508,0.5805728126098622,-5.850397386039515,0.47833907088593586,-6.003276875509565,-2.7951389826742723,-5.340856106996139,1.3057435654125111,-5.185354034862078,0,0,0,0,0,0,0,0,0,0,0,0,0,0,0,0,
317,-0.34524677350497157,1.6207804189219068,9.700903646244145,-11.21374368898443,15.12830173154493,22.695451861162127,-3.3362460786262,-6.566110042633239,0.8361881421105224,-6.006543883940772,-2.892068615908371,-6.405592155752018,-3.562091989362571,-5.740472755976661,-2.678319008152666,-6.931260487087765,0,0,0,0,0,0,0,0,0,0,0,0,0,0,0,0,
318,4.368987969665074,3.3514254216115873,10.07301017038974,-9.752014311902423,19.391520184646794,25.973878130335745,-8.811484206998518,-1.4826402882129557,5.309138938987729,-2.35572327529626,-6.001834040136042,-5.034841403508862,-4.354695425027312,-5.220624644400372,-8.830301892396868,-10.212384674294347,0,0,0,0,0,0,0,0,0,0,0,0,0,0,0,0,
319,1.8729681332664043,1.7107677827862737,9.633563106217828,-6.455712732684095,15.006932888579986,27.20254816696532,-6.957484209037695,0.6335372956181624,6.706581509813631,1.2854432826670532,-6.132012104109053,-2.5795643175283445,-5.161100460261487,-2.02293246674364,-10.480981870068012,-11.528184304569965,0,0,0,0,0,0,0,0,0,0,0,0,0,0,0,0,
320,2.4555932699117413,5.75429745509669,12.79668195009918,1.9908237148033088,16.053636858897473,33.526922337523956,1.012241978980395,5.653375067170156,5.065377435877561,4.1102273766907444,-5.11782092948911,2.0561745891817402,-4.5093081913400965,5.795641229874299,-7.641648344687685,-5.840978374120545,0,0,0,0,0,0,0,0,0,0,0,0,0,0,0,0,
321,4.899483216542695,6.277325114199691,13.41982746056882,3.4857680318743274,16.23104213216464,34.60886694598847,-3.2628185137468915,3.7907401264814884,4.631568011294338,5.079171690521974,-2.660537984199001,5.543231228059593,-2.715768227532056,9.578624466360303,-2.9518569815099553,0.799210168174165,0,0,0,0,0,0,0,0,0,0,0,0,0,0,0,0,
322,-0.82200624531953,1.0461080149600512,9.522093456059125,-5.968672369526254,14.985690710675996,28.444138466778515,-11.168178110661724,-3.507595052201684,4.3767059988159644,2.0605634565579933,-4.83852883005275,1.1771146363599811,-4.003583136879829,3.7824519200319813,-4.805187261618418,-2.7380298915551844,0,0,0,0,0,0,0,0,0,0,0,0,0,0,0,0,
323,-8.201378459118436,-0.47493073457657786,6.6273014588251336,-12.418871812216993,15.670658990127547,26.24273896594339,-10.927483133763651,-5.916612530794429,6.217796815614555,-0.6280441876286282,-7.712933492629894,-4.279935983952264,-3.364118518776671,-0.05499289929698037,-9.808380296609919,-8.706195156716769,0,0,0,0,0,0,0,0,0,0,0,0,0,0,0,0,
324,-8.810046541053103,-2.0245159817162586,4.86613110711272,-10.050920168955239,10.924078939006328,26.870389017678114,-7.851535560535947,-7.8901227884108796,4.738553135831012,-2.65501383809573,-7.3643286789934965,-6.902012310391282,-1.3440138007604148,-1.0329626402000969,-10.257683139328673,-10.64876814832004,0,0,0,0,0,0,0,0,0,0,0,0,0,0,0,0,
325,-2.4338765889589147,-1.0172317743559223,8.072830509558921,-4.192940744884238,11.126907667700536,28.414145893710984,-3.349312140832252,-8.124686302131336,0.20281562438958645,-4.277224458559232,-6.281132159866864,-9.097297457408452,-1.2796171957444642,-3.072040532639946,-7.620292899034119,-10.538109707374227,0,0,0,0,0,0,0,0,0,0,0,0,0,0,0,0,
326,-0.5295052252629606,0.6629969708958949,11.257191366300455,-5.818187325412566,15.501023434023349,25.05502429634001,-2.531844058310414,-7.417401520888273,2.354850665781832,-2.7182401954808313,-1.897792439452278,-7.0949448767555054,1.0183341421939431,-1.4932230290847954,-4.6216233574286285,-7.51388175669641,0,0,0,0,0,0,0,0,0,0,0,0,0,0,0,0,
327,-8.57656816009571,-8.02257208602969,5.428083501036536,-17.073828752559187,8.285563820924995,13.545020545593204,-7.726866565751054,-14.314170966446024,4.088609434710307,-5.290236718856239,-1.5047447962405407,-8.439582524954474,0.12645195422398103,-2.9379838547168333,-4.703018069700217,-9.107305765509974,0,0,0,0,0,0,0,0,0,0,0,0,0,0,0,0,
328,-8.109468046715415,-8.322126059618864,5.675185413078553,-17.06341039158579,4.895480648104892,11.296274077671562,-0.5424898893805796,-15.343173818131561,1.198068046243936,-12.948717399986592,-5.970847521346887,-16.909567826975188,-4.156286484312933,-9.420102785992487,-4.415827426894342,-14.169169397977331,0,0,0,0,0,0,0,0,0,0,0,0,0,0,0,0,
329,3.5764615200454486,8.553948373833506,16.009813594095043,-2.5236976974893572,14.12211023137129,20.78627010725996,13.428406903893219,-3.655002334153913,5.325219505979192,-9.824802961899607,-1.199000541910685,-13.943644289900902,1.2006422232864153,-5.8855592887263555,-4.0528300080286925,-11.634454245763811,0,0,0,0,0,0,0,0,0,0,0,0,0,0,0,0,
330,6.866958770787388,15.399011627667893,16.89602765419844,1.1541123147100372,16.241236956293456,21.893985542574697,9.541394583816906,2.155086700864448,10.074966443182312,0.7322218084702108,5.664463452623814,-3.0967331995262732,8.312540801373224,3.6566079232909523,-6.915435277303139,-6.492856827397572,0,0,0,0,0,0,0,0,0,0,0,0,0,0,0,0,
331,0.560872610396455,7.733342846104403,7.844848409381907,-5.850696212412725,7.727384013346093,14.22093893619951,-1.807383406358646,0.340993074253074,5.700921939734219,3.7812621344203343,1.4284147686428135,-2.9050793581868604,4.156636673898813,4.725316518305842,-8.425367694620814,-5.913475801395119,0,0,0,0,0,0,0,0,0,0,0,0,0,0,0,0,
332,-1.8704841619319375,6.0094871735986715,0.9967765440605802,-3.4002870344513916,-1.754451220421533,8.931575869858968,-2.557956036695238,1.1466523549467809,-0.42622461610122286,2.812017924348819,-4.619730609866133,-5.781102091436399,-3.011716526990103,2.3170614070383984,-7.311483845472944,-4.666485309815332,0,0,0,0,0,0,0,0,0,0,0,0,0,0,0,0,
333,5.032176460161185,13.780778766265918,3.559238244220097,6.827172104189913,-1.808614769095385,8.35196887322101,6.016974743646095,5.108065571818091,-1.1433293035711607,5.782653391993435,-1.4151871619145044,0.9293830206776406,-1.924871757892987,6.613318475521945,-2.990314375206335,3.43200043105867,0,0,0,0,0,0,0,0,0,0,0,0,0,0,0,0,
334,13.876560833568874,19.567495685432746,10.29236630863537,11.819796689197652,6.0308703682850755,5.728256991965207,11.327753992874136,7.312099196492369,-0.023259047683978906,9.601493752046945,3.8163122162215206,8.388649642886254,0.4694605334002926,11.363254746583323,4.4080861091035715,12.697546944164099,0,0,0,0,0,0,0,0,0,0,0,0,0,0,0,0,
335,8.273669968707662,13.099508941088537,4.997467570255678,4.701944635230653,2.058884460156243,-9.139864339796159,5.354037233043311,1.8379990287060899,-0.26592163201584107,8.939988177183244,1.67449879729962,6.265753112501361,-2.28194343070483,9.041286028149466,1.7907333848600469,10.863006534419386,0,0,0,0,0,0,0,0,0,0,0,0,0,0,0,0,
336,-9.912060774460713,-1.3839937571825942,-8.753805780839315,-9.109950579286203,-12.937234809873509,-30.919455822201847,-1.1252526808076055,-8.299374378670034,-0.7003478094603535,3.0092867910690595,-2.2755144399187035,-1.5139783990724247,-2.7481009449351173,4.241405202095099,-5.499811195834912,2.7198500552193656,0,0,0,0,0,0,0,0,0,0,0,0,0,0,0,0,
337,-10.951153544775877,-3.3258750300236386,-9.669070031632724,-8.983648237743633,-16.37021258230792,-40.34126822154165,4.1923758933278705,-8.888786142981154,-0.01933286891066377,-1.6065981106621758,1.0876888170735235,-4.570646433980176,2.6642470508835294,3.5365298057786143,-2.608130310759454,1.5637675609864035,0,0,0,0,0,0,0,0,0,0,0,0,0,0,0,0,
338,2.5067591308736965,3.0282168352051997,0.9004837158052847,-0.893036073371281,-8.996099412653518,-40.73369422382402,16.392591478892392,-1.9736146080329355,0.8046998214011243,-1.8765789957371055,7.381412213231146,-0.7860599128059911,6.87294184783646,5.519013333117955,4.57648152311631,6.6623042842236675,0,0,0,0,0,0,0,0,0,0,0,0,0,0,0,0,
339,3.36705445259733,-0.19296497029470316,2.3243255911908793,-5.6780514275942835,-8.162390173795197,-47.72923742590724,15.315581214756357,-3.604203437691366,2.61068869172402,-1.0847292657956125,10.479254336253309,2.7358698965751067,9.073833506667087,6.13355423026663,9.803093500514045,9.037384465676773,0,0,0,0,0,0,0,0,0,0,0,0,0,0,0,0,
340,-7.352737674237979,-11.550918954672586,-9.324115191145683,-15.57585708745908,-18.93934562205817,-57.87457170728849,-3.772537281834847,-10.850882717027616,0.34006429462776566,-2.9668049668712957,5.984660523274768,-2.1347421710313093,7.301857551788915,1.3531273948826783,6.239964997866515,1.2887195221480914,0,0,0,0,0,0,0,0,0,0,0,0,0,0,0,0,
341,-14.055500206651242,-18.402191518216572,-17.45431947947457,-18.417252341882005,-28.681914311251134,-61.8859368123901,-12.464849079866344,-12.303714276554858,-8.780219822314429,-7.1035153271877185,-3.0405535740057283,-11.107909133211772,-0.872160371103142,-6.013429862429778,-2.4499691982494056,-8.05434185117244,0,0,0,0,0,0,0,0,0,0,0,0,0,0,0,0,
342,-6.023149469476021,-10.5569803131276,-13.23840288564605,-13.951218842616807,-24.203611411609522,-57.497068346776004,-5.113705570339707,-9.126815828458335,-7.979015859965049,-6.015043757938518,0.57331154948975,-10.782375861930387,-0.2297662327873944,-5.88595809271024,0.07340835214993646,-6.183372408722928,0,0,0,0,0,0,0,0,0,0,0,0,0,0,0,0,
343,3.164160982986992,-3.886617683296681,-8.140660549856623,-9.476342747379299,-17.33167725804515,-52.98727082672238,-5.504046593188047,-4.496668490045445,0.543753509592726,0.08190202295139315,9.004949967840462,-2.5203351900597184,7.668513174466558,-0.07240296449777617,3.478327423837797,-1.0392263307072043,0,0,0,0,0,0,0,0,0,0,0,0,0,0,0,0,
344,-1.9460920617610888,-9.185552671934797,-9.89534906821679,-8.126678649391451,-20.610357036240043,-53.90787689410644,-11.684450175126996,-0.2886066762910462,-5.4540024977083235,1.25225898547394,0.3829188862681292,1.0313954053051688,0.2135200321227657,1.1822192000924545,-2.732283690406611,0.3328052798991563,0,0,0,0,0,0,0,0,0,0,0,0,0,0,0,0,
345,-2.2824324628808768,-5.083183693428268,-7.850174142155817,0.0849886033702294,-19.69041733097972,-47.73855071632038,-6.961730367019765,6.669087774965439,-10.65352526793551,4.637044191078743,-7.656174928970664,4.951783369379449,-7.16232280829421,4.425107048299523,-8.682700288046604,2.465133899844474,0,0,0,0,0,0,0,0,0,0,0,0,0,0,0,0,
346,6.035798601335214,3.120864944147614,-0.745871591440455,7.552460448483274,-13.698781076789647,-37.785532605911285,1.0332157901407313,13.386635054327009,-4.520144115266049,12.67287615399664,-1.1599446815373398,12.908393982430454,-1.6614044917536148,11.098145832751548,-4.779713910327313,8.46591892961023,0,0,0,0,0,0,0,0,0,0,0,0,0,0,0,0,
347,11.34606542714462,6.21869318926366,4.280403059436565,8.247849918495467,-9.709008289879458,-34.22467083008945,7.401188626061144,13.659460147599631,-2.800690314980635,14.053021584491205,3.5905532628644465,16.699427858588095,-0.07217246214478479,12.836222168087211,2.6544005227777276,15.37503982700951,0,0,0,0,0,0,0,0,0,0,0,0,0,0,0,0,
348,7.859862314831741,3.41458808280871,3.5699601780314376,2.367456167652767,-9.503018613916861,-37.1243506346169,7.442427579529317,7.14788903588223,-3.1931868119637556,9.834291427182801,2.125449043717797,11.446053481614953,-1.7669055245808494,9.358159314790367,-0.043226176330023236,11.49905022002319,0,0,0,0,0,0,0,0,0,0,0,0,0,0,0,0,
349,-0.025798027142453606,-5.220155985168317,-2.7225398118201927,-8.649637485166073,-14.99885213783677,-44.53687394018546,4.668345500418845,0.7417389090925894,-1.3708286761043667,3.7258352967836323,6.431515697831086,1.9998029678541265,2.584094632915921,3.7670247594095194,1.1343840387617519,4.277382156590959,0,0,0,0,0,0,0,0,0,0,0,0,0,0,0,0,
