%OpenBCI Raw EXG Data
%Number of channels = 16
%Sample Rate = 125 Hz
%Board = OpenBCI_GUI$BoardCytonSerialDaisy
Sample Index,EXG Channel 0,EXG Channel 1,EXG Channel 2,EXG Channel 3,EXG Channel 4,EXG Channel 5,EXG Channel 6,EXG Channel 7,EXG Channel 8,EXG Channel 9,EXG Channel 10,EXG Channel 11,EXG Channel 12,EXG Channel 13,EXG Channel 14,EXG Channel 15,Accel Channel 0,Accel Channel 1,Accel Channel 2,Other,Other.1,Other.2,Other.3,Other.4,Other.5,Other.6,Analog Channel 0,Analog Channel 1,Analog Channel 2,Timestamp,Other.7,Timestamp (Formatted),Annotations
1,-0.0,-0.0,-0.0,-0.0,-0.0,-0.0,-0.0,-0.0,-0.0,-0.0,-0.0,-0.0,-0.0,-0.0,-0.0,-0.0,0,0,0,0,0,0,0,0,0,0,0,0,0,0,0,0,T0
2,-8.354,1.3023,1.0898,10.824,-3.2493,5.684,-28.995,-7.9883,20.837,-10.152,18.909,11.961,9.9995,16.057,0.01824,12.023,0,0,0,0,0,0,0,0,0,0,0,0,0,0,0,0,
3,-0.70887,7.6059,-0.82041,45.647,-6.4989,21.367,-15.989,1.0243,-3.3269,-17.303,18.818,17.92,9.9979,36.113,8.0378,29.047,0,0,0,0,0,0,0,0,0,0,0,0,0,0,0,0,
4,1.9362,3.9106,6.2697,29.47,7.2524,28.05,5.0148,12.036,-24.491,-22.453,23.728,35.882,13.997,57.171,24.059,46.073,0,0,0,0,0,0,0,0,0,0,0,0,0,0,0,0,
5,0.58294,-6.7851,19.36,-18.708,14.004,29.733,14.02,16.049,-13.653,-22.603,25.639,44.844,20.997,58.229,40.079,51.099,0,0,0,0,0,0,0,0,0,0,0,0,0,0,0,0,
6,-7.7705,-10.481,18.452,9.1145,18.757,49.415,11.025,23.063,-33.814,-41.753,28.549,51.805,21.996,50.286,50.099,40.124,0,0,0,0,0,0,0,0,0,0,0,0,0,0,0,0,
7,1.8767,-6.175,31.544,11.938,27.511,60.099,24.031,36.077,-21.975,-31.902,49.458,61.766,41.995,69.343,63.117,44.148,0,0,0,0,0,0,0,0,0,0,0,0,0,0,0,0,
8,6.5233,15.13,32.636,16.764,24.264,-20.218,34.035,37.09,-18.137,-27.051,53.367,60.726,55.992,73.399,74.135,56.17,0,0,0,0,0,0,0,0,0,0,0,0,0,0,0,0,
9,16.169,50.434,37.728,73.587,41.017,27.463,25.039,26.102,-3.2981,-17.201,66.275,44.685,26.99,66.453,75.153,55.192,0,0,0,0,0,0,0,0,0,0,0,0,0,0,0,0,
10,52.814,61.737,64.818,81.409,59.769,76.145,32.042,25.113,26.54,20.65,70.183,27.643,8.9868,68.507,78.171,51.214,0,0,0,0,0,0,0,0,0,0,0,0,0,0,0,0,
11,41.459,55.038,50.907,-4.7663,47.521,53.827,21.045,4.1234,5.3763,6.4983,52.092,-3.3981,-1.0162,41.562,67.189,27.238,0,0,0,0,0,0,0,0,0,0,0,0,0,0,0,0,
12,55.104,54.339,58.996,-18.943,61.272,83.506,13.048,-5.8651,12.212,-0.65338,62.999,7.5608,17.981,55.616,55.207,16.263,0,0,0,0,0,0,0,0,0,0,0,0,0,0,0,0,
13,64.749,64.64,87.085,30.879,80.023,91.187,47.051,30.147,40.048,19.195,81.906,56.521,58.979,84.671,60.225,42.289,0,0,0,0,0,0,0,0,0,0,0,0,0,0,0,0,
14,86.393,65.941,88.174,91.702,86.775,62.867,67.052,68.158,50.884,23.043,90.813,78.48,65.977,92.726,74.243,79.313,0,0,0,0,0,0,0,0,0,0,0,0,0,0,0,0,
15,82.037,70.241,96.263,108.53,93.527,117.55,68.054,88.168,36.72,20.892,97.719,86.436,56.972,88.779,78.258,87.333,0,0,0,0,0,0,0,0,0,0,0,0,0,0,0,0,
16,52.681,58.541,79.35,42.348,74.277,57.227,55.053,81.177,5.5541,20.741,66.624,71.392,39.966,62.83,65.272,70.351,0,0,0,0,0,0,0,0,0,0,0,0,0,0,0,0,
17,30.326,40.839,51.437,34.172,56.027,41.908,28.054,64.185,2.3878,15.588,41.53,74.348,47.96,49.882,46.285,56.37,0,0,0,0,0,0,0,0,0,0,0,0,0,0,0,0,
18,33.972,20.136,40.525,64.995,38.778,59.589,22.055,54.195,3.2228,3.4366,37.434,63.303,33.954,47.934,34.299,51.388,0,0,0,0,0,0,0,0,0,0,0,0,0,0,0,0,
19,27.618,-22.565,5.6126,21.819,5.5294,26.269,5.0558,16.204,3.0589,-21.715,28.339,34.258,12.948,29.985,30.312,43.407,0,0,0,0,0,0,0,0,0,0,0,0,0,0,0,0,
20,32.265,-4.2677,10.701,33.643,15.282,33.95,-6.9432,-0.78582,-4.1048,-7.8667,54.245,50.215,34.943,56.038,46.326,43.428,0,0,0,0,0,0,0,0,0,0,0,0,0,0,0,0,
21,35.911,24.028,41.788,20.465,39.033,48.632,29.057,18.223,16.729,2.9812,72.152,66.171,57.936,68.09,63.339,51.449,0,0,0,0,0,0,0,0,0,0,0,0,0,0,0,0,
22,19.557,24.321,40.875,4.2876,41.784,27.313,33.057,23.231,2.5625,10.828,43.058,57.126,55.93,49.141,63.353,50.471,0,0,0,0,0,0,0,0,0,0,0,0,0,0,0,0,
23,24.203,29.613,44.961,16.109,48.535,32.995,24.058,25.24,-6.6038,3.675,57.963,62.083,51.924,63.192,67.367,53.494,0,0,0,0,0,0,0,0,0,0,0,0,0,0,0,0,
24,46.85,30.905,59.048,32.93,57.286,59.675,33.059,32.25,13.23,17.522,52.868,60.04,36.921,66.243,73.381,54.518,0,0,0,0,0,0,0,0,0,0,0,0,0,0,0,0,
25,43.498,17.199,55.136,61.756,58.039,1.3588,38.061,28.261,12.065,1.3709,41.775,34.998,15.917,52.296,65.396,37.542,0,0,0,0,0,0,0,0,0,0,0,0,0,0,0,0,
26,41.146,37.49,72.223,79.581,71.792,39.043,40.062,24.271,-3.1001,0.21911,86.681,31.956,25.913,75.349,70.41,28.564,0,0,0,0,0,0,0,0,0,0,0,0,0,0,0,0,
27,28.794,34.78,60.31,12.404,59.544,49.725,56.063,16.28,12.734,12.068,92.586,19.911,24.908,73.4,70.424,20.586,0,0,0,0,0,0,0,0,0,0,0,0,0,0,0,0,
28,15.444,18.071,34.398,-12.773,37.298,35.408,37.064,6.2889,-4.4293,-6.082,79.493,37.866,31.902,57.451,64.437,18.607,0,0,0,0,0,0,0,0,0,0,0,0,0,0,0,0,
29,24.093,20.36,17.485,21.049,16.051,55.091,5.0626,11.297,-32.594,-14.232,69.398,68.822,55.896,54.501,67.448,38.627,0,0,0,0,0,0,0,0,0,0,0,0,0,0,0,0,
30,31.743,25.649,4.5724,52.869,10.805,66.773,-16.937,27.305,-48.757,-5.3808,59.302,54.776,34.889,31.551,59.459,32.646,0,0,0,0,0,0,0,0,0,0,0,0,0,0,0,0,
31,16.395,5.9372,0.66048,37.693,6.5599,6.4567,-30.935,16.314,-38.918,-35.529,17.208,39.731,28.882,6.6027,22.47,-8.3353,0,0,0,0,0,0,0,0,0,0,0,0,0,0,0,0,
32,27.049,13.226,18.75,60.522,21.316,43.143,-17.933,17.324,-18.079,-31.676,29.115,54.688,36.876,24.656,0.482,-29.315,0,0,0,0,0,0,0,0,0,0,0,0,0,0,0,0,
33,68.703,32.516,49.839,67.347,55.073,67.83,34.069,34.335,29.761,4.1779,55.022,67.645,47.871,48.708,8.4932,-24.294,0,0,0,0,0,0,0,0,0,0,0,0,0,0,0,0,
34,44.357,7.8048,32.929,26.172,28.831,18.517,44.07,31.346,10.601,0.03246,40.928,47.603,38.867,24.759,13.504,-16.271,0,0,0,0,0,0,0,0,0,0,0,0,0,0,0,0,
35,21.011,18.093,17.018,47.001,18.588,3.2016,19.07,4.357,-16.559,-16.113,12.832,33.56,32.864,9.8085,2.5143,-25.248,0,0,0,0,0,0,0,0,0,0,0,0,0,0,0,0,
36,43.665,32.38,38.106,42.827,41.345,57.885,26.068,21.366,18.28,10.741,-0.2635,30.518,24.86,10.857,-10.477,-41.227,0,0,0,0,0,0,0,0,0,0,0,0,0,0,0,0,
37,38.321,23.665,50.194,39.652,47.102,27.57,27.067,30.376,-11.881,10.594,19.641,35.475,20.855,28.906,-2.4678,-40.205,0,0,0,0,0,0,0,0,0,0,0,0,0,0,0,0,
38,28.977,-4.0505,45.283,22.478,46.86,27.254,15.068,27.388,-15.041,-10.552,13.546,28.432,6.8497,15.955,9.5423,-33.183,0,0,0,0,0,0,0,0,0,0,0,0,0,0,0,0,
39,30.634,4.2345,55.372,76.306,57.619,37.941,5.0699,38.401,5.8,8.3027,31.452,51.391,30.845,44.004,27.553,-14.158,0,0,0,0,0,0,0,0,0,0,0,0,0,0,0,0,
40,39.292,2.52,51.463,67.136,48.38,34.627,27.072,51.413,16.642,10.159,64.357,44.35,27.842,63.055,41.562,1.8653,0,0,0,0,0,0,0,0,0,0,0,0,0,0,0,0,
41,16.951,-16.194,39.556,-12.034,45.143,22.317,34.074,24.427,-12.513,-0.98223,67.264,22.309,16.839,57.106,41.571,-0.11116,0,0,0,0,0,0,0,0,0,0,0,0,0,0,0,0,
42,28.612,-12.909,63.648,18.797,65.906,59.007,39.077,17.441,6.33,28.877,84.171,42.268,34.835,86.156,52.582,22.914,0,0,0,0,0,0,0,0,0,0,0,0,0,0,0,0,
43,55.276,-26.624,60.741,23.628,60.671,50.699,51.082,28.456,21.175,29.737,78.081,41.227,31.832,74.207,60.596,42.941,0,0,0,0,0,0,0,0,0,0,0,0,0,0,0,0,
44,38.942,-41.338,32.836,29.46,37.438,17.394,20.088,14.471,5.0227,8.5988,34.993,23.188,22.83,29.262,39.611,18.969,0,0,0,0,0,0,0,0,0,0,0,0,0,0,0,0,
45,21.609,-25.053,32.932,75.292,33.206,34.09,-14.906,18.487,-7.1299,-0.53894,26.907,25.15,25.829,24.317,16.624,-8.0034,0,0,0,0,0,0,0,0,0,0,0,0,0,0,0,0,
46,36.276,-4.7701,45.026,32.121,50.972,14.783,7.0982,30.5,-9.284,14.322,23.817,2.1103,-0.17468,16.368,0.63511,-25.977,0,0,0,0,0,0,0,0,0,0,0,0,0,0,0,0,
47,46.941,6.5118,50.118,39.954,54.738,36.476,17.1,14.514,1.5611,21.183,38.724,2.0698,-6.1784,21.418,-1.3574,-33.951,0,0,0,0,0,0,0,0,0,0,0,0,0,0,0,0,
48,55.606,22.792,72.21,83.789,75.504,70.17,34.101,31.528,1.4053,21.043,68.631,35.028,12.817,56.465,18.649,-28.925,0,0,0,0,0,0,0,0,0,0,0,0,0,0,0,0,
49,72.273,18.07,88.301,26.621,94.27,44.861,74.102,62.541,32.249,44.903,33.539,32.987,16.813,45.514,28.655,-29.899,0,0,0,0,0,0,0,0,0,0,0,0,0,0,0,0,
50,39.941,-18.653,63.393,7.4528,63.036,18.555,49.105,35.555,23.094,19.763,15.445,16.946,18.809,19.563,18.662,-38.874,0,0,0,0,0,0,0,0,0,0,0,0,0,0,0,0,
51,49.611,-11.376,66.485,54.286,69.804,32.252,38.109,33.57,7.9398,15.624,23.354,14.906,7.8058,25.613,2.67,-47.848,0,0,0,0,0,0,0,0,0,0,0,0,0,0,0,0,
52,66.282,-5.0979,73.579,27.121,79.574,54.95,52.115,37.586,25.785,29.486,25.265,15.867,-3.1975,34.663,-1.3216,-47.822,0,0,0,0,0,0,0,0,0,0,0,0,0,0,0,0,
53,81.954,6.1804,89.674,24.957,89.345,70.648,66.12,45.603,48.632,27.35,50.175,40.828,17.8,67.713,19.687,-29.793,0,0,0,0,0,0,0,0,0,0,0,0,0,0,0,0,
54,76.627,10.456,78.769,10.793,83.118,36.344,79.125,51.621,41.48,33.214,58.084,36.79,9.7975,70.762,42.694,-16.765,0,0,0,0,0,0,0,0,0,0,0,0,0,0,0,0,
55,55.301,19.732,55.865,24.631,57.891,60.043,48.13,28.639,16.328,25.079,71.994,11.751,-6.206,50.812,43.7,-32.737,0,0,0,0,0,0,0,0,0,0,0,0,0,0,0,0,
56,53.977,17.006,41.962,45.469,40.665,76.742,11.136,8.6566,26.177,27.946,57.904,-12.287,-27.21,19.862,19.705,-65.709,0,0,0,0,0,0,0,0,0,0,0,0,0,0,0,0,
57,54.655,14.28,42.059,26.308,51.441,54.442,-17.857,3.6752,29.028,15.814,4.816,-19.325,-31.213,-6.088,-21.289,-92.681,0,0,0,0,0,0,0,0,0,0,0,0,0,0,0,0,
58,58.333,42.553,69.156,20.145,72.217,-21.858,-4.8505,16.694,33.88,42.683,-10.273,-17.362,-32.216,-17.038,-48.282,-87.651,0,0,0,0,0,0,0,0,0,0,0,0,0,0,0,0,
59,46.011,53.825,80.253,1.9834,86.994,2.8437,2.1561,0.7137,55.73,61.552,-13.363,-33.399,-43.218,-26.987,-57.276,-85.62,0,0,0,0,0,0,0,0,0,0,0,0,0,0,0,0,
60,62.691,40.097,81.351,37.824,88.772,26.546,16.163,-4.2668,61.582,65.423,-7.4512,-36.435,-35.219,-25.936,-47.27,-81.588,0,0,0,0,0,0,0,0,0,0,0,0,0,0,0,0,
61,53.372,24.367,54.449,-4.3349,53.551,9.2467,9.1686,-12.248,29.434,26.294,-22.541,-47.472,-36.221,-52.887,-44.266,-88.558,0,0,0,0,0,0,0,0,0,0,0,0,0,0,0,0,
62,35.054,17.635,40.547,4.5062,49.331,-32.051,-10.826,-27.229,18.286,10.166,-39.631,-51.51,-30.223,-77.839,-61.261,-94.527,0,0,0,0,0,0,0,0,0,0,0,0,0,0,0,0,
63,37.736,28.903,68.646,55.349,75.112,-6.3484,-10.819,-5.2086,15.139,32.038,-22.72,-7.5458,1.7764,-35.791,-51.256,-66.496,0,0,0,0,0,0,0,0,0,0,0,0,0,0,0,0,
64,61.42,44.169,89.744,43.194,92.893,55.355,24.186,33.812,43.992,44.91,11.192,22.42,15.776,5.258,-11.251,-29.464,0,0,0,0,0,0,0,0,0,0,0,0,0,0,0,0,
65,88.105,46.435,94.842,33.04,103.67,68.058,61.192,51.832,58.846,56.783,63.103,61.385,52.776,49.306,44.753,10.568,0,0,0,0,0,0,0,0,0,0,0,0,0,0,0,0,
66,106.79,28.701,100.94,89.884,103.46,109.76,87.196,85.853,64.702,54.658,112.01,106.35,91.778,97.354,102.76,62.601,0,0,0,0,0,0,0,0,0,0,0,0,0,0,0,0,
67,128.48,31.965,113.04,101.73,114.24,102.47,117.2,108.87,69.557,69.533,145.93,116.32,103.78,122.4,142.76,107.63,0,0,0,0,0,0,0,0,0,0,0,0,0,0,0,0,
68,111.17,12.227,101.14,43.57,102.03,123.17,127.21,91.893,77.414,61.407,137.84,95.284,84.778,110.45,143.77,115.67,0,0,0,0,0,0,0,0,0,0,0,0,0,0,0,0,
69,73.862,6.4891,78.239,53.412,73.811,97.882,95.214,64.915,44.272,37.283,83.75,73.248,63.777,70.497,102.77,89.704,0,0,0,0,0,0,0,0,0,0,0,0,0,0,0,0,
70,62.556,-15.248,53.341,6.2586,54.6,30.59,41.221,40.936,42.131,35.162,42.663,38.214,34.777,29.545,52.773,41.737,0,0,0,0,0,0,0,0,0,0,0,0,0,0,0,0,
71,52.25,-47.987,29.442,-23.892,28.388,28.298,9.2272,8.9577,9.9908,6.042,23.575,9.18,8.7776,8.5913,20.775,2.7684,0,0,0,0,0,0,0,0,0,0,0,0,0,0,0,0,
72,54.945,-47.727,29.543,-13.044,27.177,28.008,-20.767,-10.021,6.8506,8.9218,-21.513,-21.856,-22.224,-29.364,-3.2258,-27.201,0,0,0,0,0,0,0,0,0,0,0,0,0,0,0,0,
73,38.641,-57.469,16.644,-31.195,18.967,-15.281,-32.762,-25.0,12.71,6.8016,-38.602,-49.891,-46.225,-53.319,-24.227,-55.17,0,0,0,0,0,0,0,0,0,0,0,0,0,0,0,0,
74,38.339,-52.211,8.7452,1.6555,5.7582,6.429,-33.757,-38.977,19.571,-8.3179,-24.69,-39.926,-24.226,-43.274,-32.229,-64.14,0,0,0,0,0,0,0,0,0,0,0,0,0,0,0,0,
75,40.038,-44.954,0.84764,20.505,-1.4489,4.1397,-24.751,-34.955,-11.566,-6.436,-21.779,-41.962,-11.228,-53.23,-33.232,-58.11,0,0,0,0,0,0,0,0,0,0,0,0,0,0,0,0,
76,37.739,-41.697,6.9504,17.355,9.3455,18.853,-10.745,-25.931,0.29639,-5.5518,12.132,-13.996,2.77,-16.185,-11.234,-22.08,0,0,0,0,0,0,0,0,0,0,0,0,0,0,0,0,
77,24.442,-54.442,3.0536,-32.795,-1.8592,14.566,12.263,-18.907,-4.8412,-8.6673,21.045,-12.031,-12.232,-1.1403,9.7644,-0.048,0,0,0,0,0,0,0,0,0,0,0,0,0,0,0,0,
78,24.145,-53.188,-3.8421,0.05763,-1.0621,37.28,1.2699,-19.882,-16.978,-13.782,23.959,12.937,9.7685,5.9051,22.763,13.984,0,0,0,0,0,0,0,0,0,0,0,0,0,0,0,0,
79,24.848,-62.937,-1.7386,0.91196,-3.2645,20.995,8.2766,8.1425,-1.116,-15.897,35.871,36.904,23.768,28.95,36.759,21.014,0,0,0,0,0,0,0,0,0,0,0,0,0,0,0,0,
80,-0.44717,-76.687,-21.635,3.7653,-23.466,14.71,5.2834,-3.8322,-41.253,-33.012,17.783,50.871,36.768,23.994,43.754,27.044,0,0,0,0,0,0,0,0,0,0,0,0,0,0,0,0,
81,0.2593,-73.439,-20.531,24.619,-17.667,29.425,4.2902,8.1937,-49.39,-35.125,24.695,60.838,42.767,37.038,49.748,28.074,0,0,0,0,0,0,0,0,0,0,0,0,0,0,0,0,
82,2.9678,-60.192,-20.428,12.474,-23.867,22.141,2.2966,9.2188,-28.527,-25.238,53.607,58.805,42.765,59.081,68.742,33.104,0,0,0,0,0,0,0,0,0,0,0,0,0,0,0,0,
83,-4.321,-45.946,-9.324,54.33,-7.0668,37.86,0.30311,13.244,-4.6616,-12.35,59.519,57.771,40.764,64.124,83.735,36.133,0,0,0,0,0,0,0,0,0,0,0,0,0,0,0,0,
84,12.391,-39.701,9.7788,59.185,17.734,26.579,-2.6895,36.267,3.2029,11.538,64.432,60.736,48.762,53.167,83.727,35.162,0,0,0,0,0,0,0,0,0,0,0,0,0,0,0,0,
85,35.105,-42.458,35.882,18.041,37.536,-0.70096,-14.682,43.291,28.068,29.428,67.346,55.701,54.759,39.21,82.719,30.19,0,0,0,0,0,0,0,0,0,0,0,0,0,0,0,0,
86,40.821,-34.216,44.985,55.897,54.339,20.021,-18.675,46.316,40.936,40.319,27.259,53.666,46.756,28.252,67.711,16.219,0,0,0,0,0,0,0,0,0,0,0,0,0,0,0,0,
87,53.539,-28.973,59.091,43.754,65.145,21.745,16.332,57.341,55.806,47.212,43.174,68.634,54.755,53.294,57.703,5.2497,0,0,0,0,0,0,0,0,0,0,0,0,0,0,0,0,
88,40.259,-28.733,51.197,15.614,51.952,20.468,44.339,58.366,37.675,29.107,50.087,65.601,51.754,58.335,59.694,6.2801,0,0,0,0,0,0,0,0,0,0,0,0,0,0,0,0,
89,40.98,-6.4938,56.303,38.473,63.761,23.192,56.346,60.392,28.544,43.003,32.001,50.569,39.753,38.377,47.685,-2.689,0,0,0,0,0,0,0,0,0,0,0,0,0,0,0,0,
90,39.701,-23.256,48.41,57.334,51.572,27.918,46.354,52.42,22.414,26.899,30.917,66.538,69.753,38.419,36.678,-0.65611,0,0,0,0,0,0,0,0,0,0,0,0,0,0,0,0,
91,43.425,-15.018,53.519,82.198,60.384,22.645,39.363,65.449,29.287,30.798,42.833,78.51,70.754,53.462,40.671,5.3791,0,0,0,0,0,0,0,0,0,0,0,0,0,0,0,0,
92,57.152,7.2191,62.627,97.065,70.198,46.374,57.373,71.479,60.16,56.697,50.749,65.481,55.756,54.505,50.662,6.4144,0,0,0,0,0,0,0,0,0,0,0,0,0,0,0,0,
93,70.881,-7.5458,50.736,51.93,50.013,63.103,61.383,41.509,57.034,56.597,78.663,55.45,45.756,62.546,55.651,-4.5532,0,0,0,0,0,0,0,0,0,0,0,0,0,0,0,0,
94,44.61,-17.313,38.844,20.793,45.828,16.832,53.392,27.537,25.907,52.498,49.574,49.417,46.755,39.585,45.637,-16.524,0,0,0,0,0,0,0,0,0,0,0,0,0,0,0,0,
95,36.34,-16.081,40.953,28.659,46.645,43.562,33.4,46.566,36.781,42.401,48.485,55.383,46.752,36.622,41.62,-14.497,0,0,0,0,0,0,0,0,0,0,0,0,0,0,0,0,
96,42.071,-4.8521,41.061,45.525,46.461,71.291,23.408,53.594,32.656,40.302,50.396,76.35,72.75,48.66,49.603,-2.4689,0,0,0,0,0,0,0,0,0,0,0,0,0,0,0,0,
97,61.803,27.375,74.168,95.392,89.279,35.021,37.415,89.621,51.531,65.205,51.31,91.318,87.749,57.698,56.587,6.5613,0,0,0,0,0,0,0,0,0,0,0,0,0,0,0,0,
98,86.54,39.6,107.28,95.259,115.1,28.754,41.424,112.65,102.41,92.11,61.223,91.286,80.748,60.736,56.571,10.593,0,0,0,0,0,0,0,0,0,0,0,0,0,0,0,0,
99,81.278,43.824,101.39,64.128,111.92,49.487,32.432,104.68,66.286,83.016,45.137,82.254,71.747,49.773,47.554,2.6255,0,0,0,0,0,0,0,0,0,0,0,0,0,0,0,0,
100,91.018,64.048,119.5,80.0,132.74,72.221,61.44,111.71,89.164,107.92,70.051,95.224,82.748,77.811,54.537,12.658,0,0,0,0,0,0,0,0,0,0,0,0,0,0,0,0,
101,107.76,39.27,128.61,79.872,134.57,84.956,97.448,122.74,105.04,110.83,97.964,108.19,86.748,95.846,74.519,46.691,0,0,0,0,0,0,0,0,0,0,0,0,0,0,0,0,
102,88.501,19.49,104.72,41.742,115.39,88.693,104.46,110.77,82.923,83.74,61.878,92.163,70.746,80.883,77.501,63.724,0,0,0,0,0,0,0,0,0,0,0,0,0,0,0,0,
103,104.25,30.708,113.83,85.612,123.22,87.432,109.47,102.81,89.804,83.651,93.792,125.13,108.74,116.92,92.482,85.758,0,0,0,0,0,0,0,0,0,0,0,0,0,0,0,0,
104,73.994,35.923,106.94,81.484,109.05,55.169,123.47,118.84,66.686,78.562,92.706,110.1,96.742,105.95,95.462,93.79,0,0,0,0,0,0,0,0,0,0,0,0,0,0,0,0,
105,44.742,28.137,79.052,52.357,87.879,42.908,88.482,81.868,47.568,69.473,54.62,74.071,69.741,69.988,69.441,68.823,0,0,0,0,0,0,0,0,0,0,0,0,0,0,0,0,
106,78.492,20.35,88.163,23.232,91.709,68.648,81.49,70.901,72.45,70.385,72.535,79.041,86.74,76.022,50.418,40.855,0,0,0,0,0,0,0,0,0,0,0,0,0,0,0,0,
107,74.244,17.561,100.27,56.109,105.54,64.391,91.498,82.933,59.333,85.298,89.45,98.011,97.74,93.056,59.396,42.888,0,0,0,0,0,0,0,0,0,0,0,0,0,0,0,0,
108,66.998,21.769,105.39,89.985,113.37,65.135,100.51,112.96,72.217,91.213,94.364,104.98,91.738,98.089,67.373,56.92,0,0,0,0,0,0,0,0,0,0,0,0,0,0,0,0,
109,67.753,24.974,109.5,90.862,110.21,42.878,104.52,119.0,73.101,94.127,89.278,102.95,93.737,96.122,68.349,71.953,0,0,0,0,0,0,0,0,0,0,0,0,0,0,0,0,
110,66.509,22.18,98.609,41.74,107.04,91.622,86.523,112.03,80.986,101.04,69.192,91.92,84.736,68.153,63.324,75.986,0,0,0,0,0,0,0,0,0,0,0,0,0,0,0,0,
111,61.265,-1.6166,76.719,30.62,83.877,36.366,48.528,100.06,56.87,57.96,47.106,87.888,80.735,45.183,48.297,65.017,0,0,0,0,0,0,0,0,0,0,0,0,0,0,0,0,
112,60.024,24.586,98.829,75.502,103.71,21.11,48.533,108.09,58.756,54.877,45.021,91.857,77.734,56.212,29.27,43.05,0,0,0,0,0,0,0,0,0,0,0,0,0,0,0,0,
113,68.786,33.786,102.94,53.383,113.55,56.856,76.539,112.12,73.643,74.796,33.935,64.827,43.732,53.243,10.243,13.083,0,0,0,0,0,0,0,0,0,0,0,0,0,0,0,0,
114,71.549,44.983,97.048,56.264,102.39,66.604,87.544,92.155,59.53,74.715,50.849,70.796,53.731,79.272,14.214,9.1151,0,0,0,0,0,0,0,0,0,0,0,0,0,0,0,0,
115,86.314,52.178,108.16,76.146,115.22,81.352,112.55,101.19,73.416,82.635,65.763,80.765,71.728,85.301,32.185,21.147,0,0,0,0,0,0,0,0,0,0,0,0,0,0,0,0,
116,64.083,35.372,83.269,86.029,92.065,68.102,112.56,101.22,40.306,63.557,48.677,59.734,55.725,47.329,23.155,10.178,0,0,0,0,0,0,0,0,0,0,0,0,0,0,0,0,
117,10.852,10.566,48.382,64.914,52.909,25.853,76.564,76.253,0.19612,29.481,15.592,48.704,51.723,31.358,-0.87579,-6.7899,0,0,0,0,0,0,0,0,0,0,0,0,0,0,0,0,
118,32.624,24.757,39.494,28.8,53.753,54.606,60.572,61.287,25.085,31.405,10.507,52.675,58.722,31.387,-7.9073,-3.7566,0,0,0,0,0,0,0,0,0,0,0,0,0,0,0,0,
119,62.397,13.947,37.607,31.685,48.599,25.359,68.58,48.321,29.975,38.33,39.422,54.646,53.721,51.416,16.061,17.277,0,0,0,0,0,0,0,0,0,0,0,0,0,0,0,0,
120,48.172,13.135,30.72,39.572,37.446,11.111,67.588,37.357,35.866,22.255,52.336,48.618,44.72,51.443,40.028,25.31,0,0,0,0,0,0,0,0,0,0,0,0,0,0,0,0,
121,40.95,30.322,11.833,36.461,24.294,30.866,53.596,28.392,24.758,24.182,45.251,38.591,45.719,33.471,41.994,16.343,0,0,0,0,0,0,0,0,0,0,0,0,0,0,0,0,
122,17.729,23.507,-0.05388,52.351,7.144,21.623,28.604,31.428,-7.3492,10.108,43.165,21.563,23.719,19.498,22.96,-7.6222,0,0,0,0,0,0,0,0,0,0,0,0,0,0,0,0,
123,23.511,11.69,1.0607,27.241,10.996,4.3831,16.612,36.463,12.545,6.0376,9.0799,18.535,17.719,-2.4761,-3.0749,-20.587,0,0,0,0,0,0,0,0,0,0,0,0,0,0,0,0,
124,28.296,20.872,2.1771,40.134,16.851,12.144,-2.3783,41.5,11.441,23.969,-9.0053,23.508,27.717,-5.4507,-15.109,-15.552,0,0,0,0,0,0,0,0,0,0,0,0,0,0,0,0,
125,24.083,9.0525,-9.7064,18.028,-1.2922,11.906,-20.369,29.537,23.338,22.902,-1.088,14.481,23.716,-3.4244,-12.144,-2.5178,0,0,0,0,0,0,0,0,0,0,0,0,0,0,0,0,
126,14.872,3.2315,-15.589,-8.0774,-3.4341,29.667,-22.36,2.5747,20.236,18.836,6.8297,6.4543,21.715,3.6021,-7.1789,-0.48402,0,0,0,0,0,0,0,0,0,0,0,0,0,0,0,0,
127,41.663,17.409,-2.4725,23.822,9.4254,4.431,11.65,18.613,27.134,27.772,13.747,19.428,37.715,11.628,-2.2149,2.5499,0,0,0,0,0,0,0,0,0,0,0,0,0,0,0,0,
128,15.455,15.584,-21.357,44.719,-12.715,-26.805,1.66,20.652,24.031,10.707,-3.335,13.401,34.714,-13.347,-10.251,7.5847,0,0,0,0,0,0,0,0,0,0,0,0,0,0,0,0,
129,-18.75,24.757,-39.239,26.615,-22.853,-18.036,-18.329,11.691,-12.069,7.6438,-22.416,4.3755,24.713,-31.321,-26.287,8.62,0,0,0,0,0,0,0,0,0,0,0,0,0,0,0,0,
130,-13.952,15.928,-35.123,-7.4875,-23.991,-15.268,-24.318,-1.2705,0.83167,8.5812,-15.497,7.3494,25.712,-22.296,-28.324,23.655,0,0,0,0,0,0,0,0,0,0,0,0,0,0,0,0,
131,35.848,12.096,-19.007,16.41,-9.1281,50.502,8.6912,-8.2333,23.733,25.519,38.423,16.323,23.711,16.728,-9.3604,38.691,0,0,0,0,0,0,0,0,0,0,0,0,0,0,0,0,
132,34.65,5.2622,-30.891,-4.6911,-20.264,17.272,23.701,-14.195,18.635,20.458,23.342,7.2962,16.709,8.7509,5.6017,38.726,0,0,0,0,0,0,0,0,0,0,0,0,0,0,0,0,
133,22.453,19.427,-14.774,-16.791,-9.3971,16.044,1.7108,-21.158,28.538,23.399,26.261,16.269,22.708,19.773,19.562,37.76,0,0,0,0,0,0,0,0,0,0,0,0,0,0,0,0,
134,56.258,48.59,11.343,9.1116,19.471,54.815,19.72,-4.1196,50.442,42.341,45.179,7.2422,2.706,35.795,27.52,37.794,0,0,0,0,0,0,0,0,0,0,0,0,0,0,0,0,
135,50.067,56.751,18.46,32.015,25.34,47.589,39.729,14.919,46.347,41.285,30.099,1.2162,-2.2948,24.816,16.477,30.827,0,0,0,0,0,0,0,0,0,0,0,0,0,0,0,0,
136,15.877,46.908,12.576,45.918,17.21,-11.637,21.738,19.958,19.253,18.229,23.017,11.19,18.704,15.836,7.4347,29.862,0,0,0,0,0,0,0,0,0,0,0,0,0,0,0,0,
137,36.687,43.065,13.693,16.824,23.082,15.136,8.7447,27.996,57.159,37.174,23.934,2.1631,-0.29782,2.8547,-0.60866,20.897,0,0,0,0,0,0,0,0,0,0,0,0,0,0,0,0,
138,40.499,24.221,11.81,-12.27,15.955,23.911,-0.24927,14.035,38.065,36.121,18.852,5.1364,-6.2998,1.8731,-3.6537,3.9316,0,0,0,0,0,0,0,0,0,0,0,0,0,0,0,0,
139,47.311,43.374,24.925,12.635,29.828,14.685,12.755,19.072,45.971,48.066,15.769,19.109,13.697,9.8904,0.29985,6.9648,0,0,0,0,0,0,0,0,0,0,0,0,0,0,0,0,
140,39.128,44.525,19.041,-15.458,28.704,19.461,15.762,18.111,54.879,47.014,16.687,2.0818,-3.3072,7.9081,-6.7469,10.997,0,0,0,0,0,0,0,0,0,0,0,0,0,0,0,0,
141,34.945,25.672,15.158,-9.5513,17.581,23.239,21.769,8.1496,54.787,27.963,4.6048,-6.9447,-11.31,5.9261,-17.794,4.0306,0,0,0,0,0,0,0,0,0,0,0,0,0,0,0,0,
142,38.764,25.817,1.2737,16.357,8.4589,23.018,18.776,9.1887,45.694,18.912,-1.4771,2.0286,9.687,2.9437,-23.842,-4.9352,0,0,0,0,0,0,0,0,0,0,0,0,0,0,0,0,
143,23.585,28.96,-5.6105,-17.733,1.338,31.798,18.783,7.228,22.603,15.862,3.4404,4.0017,16.683,2.9605,-19.891,-2.9007,0,0,0,0,0,0,0,0,0,0,0,0,0,0,0,0,
144,11.409,19.102,-12.494,-9.8225,-8.7813,3.5789,1.7909,-5.7324,22.515,7.814,1.3577,-4.0248,6.6792,-11.023,-17.942,8.1344,0,0,0,0,0,0,0,0,0,0,0,0,0,0,0,0,
145,3.2341,7.2415,-22.379,8.0898,-8.8995,-1.6395,-15.202,-17.693,17.426,13.767,4.2749,-5.0506,4.6761,-9.0071,-15.994,11.17,0,0,0,0,0,0,0,0,0,0,0,0,0,0,0,0,
146,10.061,1.3794,-7.2629,16.003,0.98352,5.1436,4.8034,-4.653,27.337,32.721,1.1927,12.924,18.673,8.0082,-9.0461,28.206,0,0,0,0,0,0,0,0,0,0,0,0,0,0,0,0,
147,2.8889,1.5143,-14.148,-7.0845,-4.1332,-22.073,9.8093,0.38667,25.248,23.675,-20.89,0.89806,-6.3296,-13.977,-10.099,35.244,0,0,0,0,0,0,0,0,0,0,0,0,0,0,0,0,
148,-17.282,12.647,-24.035,2.8284,-10.249,-14.289,-24.186,-12.575,22.159,9.6288,-24.973,-10.128,-15.333,-29.964,-20.152,22.281,0,0,0,0,0,0,0,0,0,0,0,0,0,0,0,0,
149,-18.451,13.777,-3.9209,17.743,6.6359,-9.5045,-33.182,2.4637,30.072,22.584,-11.056,6.8456,8.664,-20.951,-27.207,13.317,0,0,0,0,0,0,0,0,0,0,0,0,0,0,0,0,
150,-13.617,16.906,-14.806,-23.343,0.52368,-9.7171,-23.177,-5.4967,9.9855,23.541,-19.138,-8.1802,2.6607,-35.938,-43.262,-7.6467,0,0,0,0,0,0,0,0,0,0,0,0,0,0,0,0,
151,-4.7786,36.034,-7.6902,9.5753,8.4141,5.0717,-21.172,-5.456,20.9,16.5,-20.22,11.795,15.658,-16.925,-45.317,-17.611,0,0,0,0,0,0,0,0,0,0,0,0,0,0,0,0,
152,-13.94,31.159,-10.575,-24.505,-1.6947,-54.141,0.83328,8.5853,11.815,8.4584,-41.302,-14.23,-17.346,-35.913,-48.374,-25.574,0,0,0,0,0,0,0,0,0,0,0,0,0,0,0,0,
153,-4.1016,49.283,-8.461,18.414,9.1967,0.64698,-22.163,-8.374,15.73,22.417,-26.387,-8.2551,-1.349,-29.904,-50.432,-37.538,0,0,0,0,0,0,0,0,0,0,0,0,0,0,0,0,
154,19.738,59.407,2.6529,-8.6648,13.09,11.438,-4.1594,10.668,35.645,37.378,3.5288,-3.2805,-3.3521,-8.8944,-39.492,-37.503,0,0,0,0,0,0,0,0,0,0,0,0,0,0,0,0,
155,6.5798,40.528,-28.234,-38.743,-17.016,-5.7725,-0.15657,-12.291,4.56,11.339,-2.5554,-28.305,-26.355,-11.886,-31.553,-29.468,0,0,0,0,0,0,0,0,0,0,0,0,0,0,0,0,
156,1.4239,46.647,-30.121,-15.821,-14.122,9.0175,-8.1539,-40.251,14.475,18.3,-8.641,-42.332,-40.36,-15.878,-32.616,-27.434,0,0,0,0,0,0,0,0,0,0,0,0,0,0,0,0,
157,0.26918,63.764,-10.009,23.103,-0.22591,4.8102,-11.152,-43.211,33.39,28.262,0.27288,-37.358,-35.365,-17.872,-30.68,-27.399,0,0,0,0,0,0,0,0,0,0,0,0,0,0,0,0,
158,6.116,51.877,-10.897,5.0252,1.6705,-11.397,-11.15,-35.172,14.306,30.225,-13.813,-41.384,-41.369,-32.866,-36.745,-27.364,0,0,0,0,0,0,0,0,0,0,0,0,0,0,0,0,
159,19.965,51.989,-9.7868,-20.051,0.56721,5.3963,-10.15,-31.132,25.222,25.188,-20.9,-47.41,-47.374,-27.863,-54.811,-36.329,0,0,0,0,0,0,0,0,0,0,0,0,0,0,0,0,
160,21.815,32.098,-21.677,-66.126,-16.536,20.19,-12.15,-45.092,39.138,6.1506,-49.987,-73.438,-65.379,-49.86,-72.878,-54.293,0,0,0,0,0,0,0,0,0,0,0,0,0,0,0,0,
161,9.6676,21.205,-34.567,-70.2,-22.636,-18.013,-44.15,-66.053,16.057,14.116,-67.073,-68.464,-56.384,-64.856,-83.944,-52.257,0,0,0,0,0,0,0,0,0,0,0,0,0,0,0,0,
162,16.522,35.31,-8.4565,-21.274,-1.7351,-25.215,-37.15,-46.014,20.976,21.083,-37.158,-41.492,-35.391,-47.854,-72.012,-38.222,0,0,0,0,0,0,0,0,0,0,0,0,0,0,0,0,
163,11.377,35.413,-5.346,-4.3479,0.16751,13.583,-18.151,-23.976,31.894,24.05,-31.245,-37.52,-43.398,-39.852,-57.081,-32.187,0,0,0,0,0,0,0,0,0,0,0,0,0,0,0,0,
164,7.2344,27.514,-10.236,24.581,-0.92867,-2.62,-8.1526,-14.938,14.812,20.018,-40.333,-22.549,-37.406,-37.851,-55.152,-28.154,0,0,0,0,0,0,0,0,0,0,0,0,0,0,0,0,
165,24.094,43.611,11.873,67.511,16.976,18.18,-2.1537,14.101,23.733,32.987,-10.419,15.421,-6.4149,-4.851,-42.223,-0.1214,0,0,0,0,0,0,0,0,0,0,0,0,0,0,0,0,
166,21.956,21.705,-4.0185,25.439,3.8805,7.9808,20.845,12.14,11.654,25.954,-8.506,-5.607,-14.423,-7.8514,-38.295,12.912,0,0,0,0,0,0,0,0,0,0,0,0,0,0,0,0,
167,-11.179,-5.2031,-42.91,-63.633,-38.212,-14.217,-24.156,-30.821,-12.424,-12.075,-51.593,-29.635,-26.43,-48.853,-61.369,-5.0538,0,0,0,0,0,0,0,0,0,0,0,0,0,0,0,0,
168,-23.311,-14.112,-54.799,-37.701,-51.302,-37.413,-59.156,-55.781,-32.502,-24.103,-53.679,-37.662,-39.438,-51.854,-86.442,-26.018,0,0,0,0,0,0,0,0,0,0,0,0,0,0,0,0,
169,5.5598,3.9765,-34.688,1.2321,-23.39,-33.605,-36.155,-45.74,-2.5772,-1.1286,-38.763,-38.687,-38.445,-41.855,-88.513,-28.98,0,0,0,0,0,0,0,0,0,0,0,0,0,0,0,0,
170,12.433,27.063,-16.577,-1.8322,-10.476,-22.794,-29.152,-32.697,4.3489,21.847,-52.845,-47.712,-37.451,-45.854,-74.583,-17.94,0,0,0,0,0,0,0,0,0,0,0,0,0,0,0,0,
171,9.3076,24.147,-15.467,-6.8961,-7.5616,2.0171,-39.149,-38.655,-9.7253,17.822,-29.927,-45.736,-35.457,-37.853,-45.654,0.09956,0,0,0,0,0,0,0,0,0,0,0,0,0,0,0,0,
172,29.184,-1.7711,-15.358,3.0389,-5.6467,13.829,-36.148,-34.614,14.202,23.798,-41.01,-46.762,-51.464,-49.853,-36.728,0.13789,0,0,0,0,0,0,0,0,0,0,0,0,0,0,0,0,
173,9.0614,-26.691,-27.25,6.9754,-24.732,-29.36,-52.149,-36.574,-3.8733,3.7744,-59.095,-47.79,-58.472,-62.856,-49.805,-16.826,0,0,0,0,0,0,0,0,0,0,0,0,0,0,0,0,
174,8.9399,-23.614,-31.145,-33.09,-24.817,-12.547,-34.152,-33.537,3.0513,13.75,-50.181,-49.818,-52.481,-60.861,-63.883,-18.791,0,0,0,0,0,0,0,0,0,0,0,0,0,0,0,0,
175,-7.1802,-32.54,-47.04,-57.155,-40.902,-7.7355,-37.155,-51.5,-3.0235,-5.2736,-50.268,-60.847,-51.491,-63.867,-71.964,-8.7561,0,0,0,0,0,0,0,0,0,0,0,0,0,0,0,0,
176,12.699,-31.468,-38.936,-51.219,-36.986,13.075,-36.159,-52.463,-16.1,-22.299,-30.355,-68.877,-51.502,-44.875,-66.046,-3.7229,0,0,0,0,0,0,0,0,0,0,0,0,0,0,0,0,
177,25.58,-42.399,-48.833,-44.28,-44.068,-0.11106,-24.163,-64.426,-21.176,-20.323,-27.443,-68.906,-52.513,-52.884,-65.13,-8.6905,0,0,0,0,0,0,0,0,0,0,0,0,0,0,0,0,
178,12.463,-52.33,-54.731,-28.339,-55.151,-22.295,-38.167,-61.388,-15.253,-30.346,-30.53,-35.936,-20.524,-42.892,-57.214,-2.6575,0,0,0,0,0,0,0,0,0,0,0,0,0,0,0,0,
179,10.347,-62.266,-49.629,-39.401,-53.232,-8.4799,-38.171,-49.35,-13.328,-26.369,-28.617,-35.968,-37.537,-32.901,-45.298,3.3758,0,0,0,0,0,0,0,0,0,0,0,0,0,0,0,0,
180,-4.7668,-58.203,-49.528,1.5374,-48.312,-18.663,-34.177,-50.314,-28.403,-24.39,-43.705,-36.998,-37.549,-43.911,-43.382,6.4094,0,0,0,0,0,0,0,0,0,0,0,0,0,0,0,0,
181,-13.88,-19.143,-17.427,38.478,-18.39,-26.846,-34.183,-23.278,-1.478,-3.4116,-46.792,-21.029,-21.56,-34.92,-42.466,19.444,0,0,0,0,0,0,0,0,0,0,0,0,0,0,0,0,
182,-8.9904,-18.085,-11.326,-41.581,-9.4676,-8.0282,-20.189,-13.241,-1.5517,7.5677,-53.879,-46.058,-52.571,-48.931,-51.552,8.4787,0,0,0,0,0,0,0,0,0,0,0,0,0,0,0,0,
183,-17.099,-18.028,-17.225,-49.639,-14.543,-11.207,-41.195,-33.204,-17.625,3.5482,-55.966,-47.088,-39.583,-55.943,-57.639,-6.4876,0,0,0,0,0,0,0,0,0,0,0,0,0,0,0,0,
184,-18.206,-13.974,-16.125,-34.693,-13.618,-44.387,-58.2,-37.166,-19.697,-0.47041,-61.054,-53.118,-46.595,-57.955,-60.727,-23.455,0,0,0,0,0,0,0,0,0,0,0,0,0,0,0,0,
185,-1.3107,-6.9199,4.975,-26.747,15.309,-18.566,-39.206,-23.128,-5.7686,16.512,-52.143,-48.148,-44.608,-48.969,-61.816,-28.424,0,0,0,0,0,0,0,0,0,0,0,0,0,0,0,0,
186,13.584,-2.8698,37.074,-7.8036,41.236,-1.7445,-12.213,-1.0919,16.16,30.496,-29.232,-16.18,-19.622,-16.984,-48.906,-13.392,0,0,0,0,0,0,0,0,0,0,0,0,0,0,0,0,
187,6.4796,-5.824,46.17,23.141,52.163,-26.923,5.7778,17.943,21.086,39.478,-45.32,-31.212,-38.637,-23.999,-45.997,-16.361,0,0,0,0,0,0,0,0,0,0,0,0,0,0,0,0,
188,-4.6227,-12.78,40.267,59.085,50.09,-23.1,4.7689,11.978,11.013,37.461,-46.41,-33.244,-51.652,-27.016,-52.089,-26.329,0,0,0,0,0,0,0,0,0,0,0,0,0,0,0,0,
189,15.277,-13.736,50.363,2.0321,53.02,-4.2749,14.76,21.013,-0.0584,30.446,-16.498,-15.275,-15.665,-8.032,-46.18,-19.296,0,0,0,0,0,0,0,0,0,0,0,0,0,0,0,0,
190,3.1803,-50.696,15.459,-50.019,21.951,-4.4485,12.749,7.0492,1.8703,6.4301,-25.587,-33.306,-15.679,-30.049,-43.273,-12.263,0,0,0,0,0,0,0,0,0,0,0,0,0,0,0,0,
191,-10.916,-82.661,-35.446,-31.071,-28.117,-8.6224,-14.261,-34.916,-28.201,-34.585,-35.677,-39.338,-26.695,-45.069,-47.369,-12.231,0,0,0,0,0,0,0,0,0,0,0,0,0,0,0,0,
192,-1.0106,-68.626,-47.351,-31.121,-43.184,-0.79449,-34.272,-58.88,-39.27,-50.6,-27.767,-47.371,-28.71,-46.09,-44.466,-15.198,0,0,0,0,0,0,0,0,0,0,0,0,0,0,0,0,
193,10.898,-49.593,-21.257,-12.168,-13.249,14.035,-19.283,-49.845,-18.339,-28.612,-24.858,-40.403,-33.725,-37.112,-43.563,-27.166,0,0,0,0,0,0,0,0,0,0,0,0,0,0,0,0,
194,4.8066,-37.564,-5.1642,37.781,-4.3145,9.8641,-0.29494,-24.81,-21.411,-6.6247,-24.95,-41.437,-45.74,-35.135,-43.66,-38.133,0,0,0,0,0,0,0,0,0,0,0,0,0,0,0,0,
195,-8.2827,-34.538,-5.0729,39.73,0.6202,-1.3046,-17.307,-20.776,-40.481,-9.6375,-42.04,-52.47,-56.756,-51.159,-50.758,-37.101,0,0,0,0,0,0,0,0,0,0,0,0,0,0,0,0,
196,16.63,-32.515,8.017,-24.319,16.556,-15.472,-23.321,-18.744,-3.5498,-0.65011,-45.13,-41.506,-37.773,-47.182,-49.857,-12.07,0,0,0,0,0,0,0,0,0,0,0,0,0,0,0,0,
197,19.545,-45.495,7.1059,-57.369,8.4914,-3.6391,-27.335,-29.713,27.382,7.3373,-51.22,-44.542,-35.791,-63.207,-49.956,7.9598,0,0,0,0,0,0,0,0,0,0,0,0,0,0,0,0,
198,10.46,-53.476,-6.8059,-36.414,-1.5717,-27.805,-40.351,-36.681,7.313,6.3265,-67.311,-59.578,-58.809,-80.234,-56.057,12.989,0,0,0,0,0,0,0,0,0,0,0,0,0,0,0,0,
199,-4.6236,-50.459,-24.72,-20.46,-18.635,-35.97,-57.367,-44.649,-15.758,-6.6856,-58.403,-42.614,-47.828,-65.261,-56.159,16.017,0,0,0,0,0,0,0,0,0,0,0,0,0,0,0,0,
200,-7.705,-51.445,-14.634,6.494,-12.697,-14.135,-44.383,-26.617,-20.829,-12.697,-43.495,-28.649,-38.847,-59.288,-45.261,19.044,0,0,0,0,0,0,0,0,0,0,0,0,0,0,0,0,
201,10.215,-68.431,-22.547,-0.54732,-12.757,-26.298,-46.398,-31.585,-5.8977,-6.7075,-45.587,-35.684,-41.865,-62.315,-41.363,2.0723,0,0,0,0,0,0,0,0,0,0,0,0,0,0,0,0,
202,-3.8628,-87.42,-30.461,-19.59,-25.815,-16.462,-38.412,-47.553,-0.96451,-16.717,-26.679,-19.721,-15.885,-35.344,-23.467,13.1,0,0,0,0,0,0,0,0,0,0,0,0,0,0,0,0,
203,8.0604,-74.412,-27.376,46.367,-23.873,9.3758,-22.428,-36.522,-29.034,-25.728,-17.772,-12.758,-0.90558,-27.373,-3.5728,37.126,0,0,0,0,0,0,0,0,0,0,0,0,0,0,0,0,
204,-22.014,-79.405,-42.29,0.32509,-35.928,-12.784,-26.445,-31.491,-40.101,-36.736,-38.866,-34.794,-17.925,-48.403,-13.68,23.153,0,0,0,0,0,0,0,0,0,0,0,0,0,0,0,0,
205,-74.087,-87.403,-60.206,-52.716,-56.983,-23.946,-45.462,-40.46,-108.17,-77.745,-34.96,-47.83,-28.945,-61.434,-37.788,0.18106,0,0,0,0,0,0,0,0,0,0,0,0,0,0,0,0,
206,7.8407,-96.403,-59.123,-41.758,-48.039,-13.107,-54.479,-60.428,-54.237,-65.754,-56.054,-76.866,-60.965,-75.467,-55.895,-20.791,0,0,0,0,0,0,0,0,0,0,0,0,0,0,0,0,
207,44.77,-88.405,-52.041,-37.797,-45.092,-16.265,-60.497,-76.397,26.696,-10.76,-66.149,-89.903,-79.986,-82.5,-65.002,-34.762,0,0,0,0,0,0,0,0,0,0,0,0,0,0,0,0,
208,-24.299,-101.41,-53.959,-37.835,-49.145,-35.424,-63.515,-80.366,-31.371,-27.766,-57.243,-87.941,-88.007,-76.534,-68.112,-40.734,0,0,0,0,0,0,0,0,0,0,0,0,0,0,0,0,
209,2.6345,-88.416,-30.879,-8.8746,-19.197,12.417,-39.536,-56.336,-36.436,-21.773,-31.336,-59.979,-66.028,-47.569,-54.225,-26.708,0,0,0,0,0,0,0,0,0,0,0,0,0,0,0,0,
210,4.5676,-90.425,-16.8,2.0867,-10.249,-24.74,-25.557,-36.307,-21.504,-37.779,-45.432,-56.018,-51.05,-58.606,-51.339,-7.6828,0,0,0,0,0,0,0,0,0,0,0,0,0,0,0,0,
211,-23.5,-101.44,-29.724,-18.951,-22.302,-59.899,-44.58,-43.278,-30.572,-44.787,-57.529,-63.058,-54.073,-77.646,-61.453,2.3427,0,0,0,0,0,0,0,0,0,0,0,0,0,0,0,0,
212,-15.565,-92.453,-38.649,-19.988,-26.355,0.94327,-48.604,-51.25,-33.64,-31.794,-56.626,-60.097,-52.096,-83.686,-70.569,8.3676,0,0,0,0,0,0,0,0,0,0,0,0,0,0,0,0,
213,-6.6293,-83.471,-26.577,-32.025,-20.408,-7.2111,-43.629,-42.222,-40.709,-27.801,-45.723,-56.136,-45.118,-66.727,-69.686,17.392,0,0,0,0,0,0,0,0,0,0,0,0,0,0,0,0,
214,-34.694,-97.489,-57.506,-14.06,-45.46,-70.366,-49.655,-44.195,-40.779,-48.808,-72.821,-75.177,-59.142,-79.77,-74.805,11.415,0,0,0,0,0,0,0,0,0,0,0,0,0,0,0,0,
215,-57.755,-100.51,-74.435,-23.095,-61.511,-47.521,-69.681,-61.17,-63.846,-62.813,-67.92,-68.218,-45.167,-79.812,-75.924,3.4369,0,0,0,0,0,0,0,0,0,0,0,0,0,0,0,0,
216,-61.815,-77.529,-55.365,-30.13,-44.562,-40.675,-63.708,-51.146,-72.914,-58.819,-53.018,-39.261,-25.193,-59.856,-58.046,14.457,0,0,0,0,0,0,0,0,0,0,0,0,0,0,0,0,
217,-59.875,-77.554,-61.297,-22.166,-45.612,-50.829,-44.737,-29.122,-76.983,-69.825,-49.119,-37.303,-38.22,-56.902,-33.169,34.477,0,0,0,0,0,0,0,0,0,0,0,0,0,0,0,0,
218,-68.932,-102.58,-74.228,-6.1999,-60.66,-41.982,-72.765,-62.097,-96.05,-89.829,-45.22,-25.345,-29.246,-50.948,-18.293,59.496,0,0,0,0,0,0,0,0,0,0,0,0,0,0,0,0,
219,-35.988,-96.607,-53.16,22.768,-40.707,-39.136,-56.793,-41.072,-73.119,-58.834,-53.319,-30.388,-48.273,-54.994,-22.417,60.515,0,0,0,0,0,0,0,0,0,0,0,0,0,0,0,0,
220,-52.042,-93.637,-71.092,-25.266,-53.752,-42.288,-70.822,-47.048,-72.186,-64.836,-61.42,-44.432,-47.302,-70.041,-32.542,54.533,0,0,0,0,0,0,0,0,0,0,0,0,0,0,0,0,
221,-48.094,-84.67,-60.025,-56.3,-46.797,-31.437,-73.85,-52.025,-65.251,-44.839,-51.52,-44.477,-35.332,-71.089,-38.669,50.551,0,0,0,0,0,0,0,0,0,0,0,0,0,0,0,0,
222,-32.144,-80.706,-39.959,-25.332,-20.841,-32.585,-65.879,-39.003,-48.316,-37.842,-51.62,-25.522,-10.362,-60.139,-29.797,56.568,0,0,0,0,0,0,0,0,0,0,0,0,0,0,0,0,
223,-24.192,-69.744,-32.894,-11.361,-17.883,-65.731,-50.908,-28.98,-20.382,-21.844,-56.721,-18.567,-9.3913,-48.188,-14.926,68.586,0,0,0,0,0,0,0,0,0,0,0,0,0,0,0,0,
224,-24.24,-64.785,-33.83,-17.39,-17.926,-28.878,-63.938,-32.957,-41.449,-20.848,-33.821,-12.612,-15.42,-28.238,-7.0542,62.604,0,0,0,0,0,0,0,0,0,0,0,0,0,0,0,0,
225,3.7128,-41.827,-2.7683,7.5797,18.032,22.973,-28.97,-8.936,-4.5152,6.1505,10.077,0.34303,-8.4502,0.71056,6.8161,53.621,0,0,0,0,0,0,0,0,0,0,0,0,0,0,0,0,
226,22.667,-17.872,12.291,49.549,27.988,45.825,-11.004,10.084,-11.582,25.149,39.974,23.296,23.518,8.6564,32.684,69.638,0,0,0,0,0,0,0,0,0,0,0,0,0,0,0,0,
227,35.624,-27.921,13.351,25.518,27.946,56.679,-4.0374,24.104,0.35232,30.145,55.87,23.249,29.487,17.601,60.55,95.654,0,0,0,0,0,0,0,0,0,0,0,0,0,0,0,0,
228,19.581,-38.971,1.4092,31.489,19.905,3.5339,-5.0722,11.122,10.286,38.143,46.766,11.202,14.455,-1.4545,60.415,97.668,0,0,0,0,0,0,0,0,0,0,0,0,0,0,0,0,
229,-25.461,-53.024,-18.534,26.461,-6.136,-8.6112,-35.107,-6.8583,-17.781,20.141,-18.338,-11.846,-1.578,-48.511,19.279,68.682,0,0,0,0,0,0,0,0,0,0,0,0,0,0,0,0,
230,-46.503,-79.08,-46.479,-42.567,-27.177,-37.756,-72.143,-36.839,-32.847,-11.862,-73.441,-42.893,-32.611,-71.568,-38.856,12.695,0,0,0,0,0,0,0,0,0,0,0,0,0,0,0,0,
231,-40.544,-105.14,-45.425,-46.593,-27.217,-46.9,-69.18,-53.822,-28.913,-0.86313,-80.547,-59.942,-51.645,-78.625,-77.993,-34.292,0,0,0,0,0,0,0,0,0,0,0,0,0,0,0,0,
232,-45.585,-123.2,-57.374,-17.619,-43.259,-58.046,-70.218,-63.805,-48.982,-17.866,-67.653,-68.992,-59.681,-88.685,-78.131,-39.28,0,0,0,0,0,0,0,0,0,0,0,0,0,0,0,0,
233,-43.627,-116.26,-66.326,-20.647,-45.301,-41.193,-83.259,-68.79,-69.052,-31.871,-50.761,-69.043,-60.718,-78.746,-55.27,-23.268,0,0,0,0,0,0,0,0,0,0,0,0,0,0,0,0,
234,-39.667,-98.328,-54.279,-37.677,-38.342,-28.337,-75.3,-63.777,-55.122,-21.876,-17.868,-53.094,-44.755,-45.807,-20.41,-7.256,0,0,0,0,0,0,0,0,0,0,0,0,0,0,0,0,
235,-53.705,-93.397,-57.233,-52.705,-37.384,-28.481,-63.343,-59.765,-49.193,-7.88,-21.975,-55.145,-61.791,-50.869,-5.5498,-19.243,0,0,0,0,0,0,0,0,0,0,0,0,0,0,0,0,
236,-40.742,-60.468,-46.189,-26.731,-19.425,-6.625,-56.386,-50.752,-45.262,-4.8837,-1.0818,-22.197,-30.828,-32.933,2.3096,-18.231,0,0,0,0,0,0,0,0,0,0,0,0,0,0,0,0,
237,-6.7785,-44.539,-24.146,28.244,-6.4658,8.2325,-19.431,-21.74,-28.332,-0.88816,21.81,4.7508,-6.8642,-3.9971,21.168,9.7814,0,0,0,0,0,0,0,0,0,0,0,0,0,0,0,0,
238,-8.8126,-54.613,-22.104,-26.781,0.49449,-1.907,3.5249,-11.728,-12.402,3.1077,-5.2976,4.6986,-2.9005,-8.0617,27.026,25.793,0,0,0,0,0,0,0,0,0,0,0,0,0,0,0,0,
239,6.154,-75.689,-21.063,-41.806,-0.54423,-10.045,3.4808,-19.717,-3.4724,14.104,-18.404,17.646,12.062,-5.1267,13.883,29.805,0,0,0,0,0,0,0,0,0,0,0,0,0,0,0,0,
240,-29.877,-94.766,-49.022,-31.829,-34.581,1.8176,7.4368,-24.706,-54.541,-34.899,-19.509,15.593,4.0245,-1.1912,3.7418,21.818,0,0,0,0,0,0,0,0,0,0,0,0,0,0,0,0,
241,-21.905,-92.844,-47.981,9.1475,-25.617,-11.317,0.39415,-19.695,-58.608,-34.9,-29.614,15.54,-9.0137,-1.2554,-2.3997,10.829,0,0,0,0,0,0,0,0,0,0,0,0,0,0,0,0,
242,-16.931,-95.926,-20.94,-5.8766,-4.6508,-29.451,9.3521,0.31641,-25.675,-6.9008,-15.722,17.485,-3.0534,2.6785,-4.5427,3.8398,0,0,0,0,0,0,0,0,0,0,0,0,0,0,0,0,
243,-3.958,-106.01,-32.903,-43.899,-16.687,-4.5879,6.3075,1.3252,-7.7446,-6.9047,-30.831,-0.57066,-14.094,-15.39,-13.689,-6.1518,0,0,0,0,0,0,0,0,0,0,0,0,0,0,0,0,
244,-4.9865,-118.1,-49.869,-43.923,-30.725,-22.726,-13.74,-19.667,4.1848,-11.91,-36.944,-21.628,-23.137,-38.462,-30.839,-24.145,0,0,0,0,0,0,0,0,0,0,0,0,0,0,0,0,
245,-23.014,-111.19,-46.837,-1.949,-34.762,-40.865,-35.789,-34.661,-6.8868,-13.916,-31.057,-31.685,-33.18,-44.534,-40.99,-33.138,0,0,0,0,0,0,0,0,0,0,0,0,0,0,0,0,
246,-17.04,-104.29,-51.805,-20.971,-34.798,-43.002,-41.838,-35.655,-10.958,-4.9201,-62.17,-42.741,-39.223,-59.606,-47.141,-40.132,0,0,0,0,0,0,0,0,0,0,0,0,0,0,0,0,
247,-2.0654,-109.38,-48.776,-48.994,-30.835,-17.139,-38.888,-35.65,-11.031,4.0744,-31.285,-4.7997,-3.2667,-23.681,-26.294,-15.126,0,0,0,0,0,0,0,0,0,0,0,0,0,0,0,0,
248,-11.092,-110.48,-52.751,-33.018,-39.875,-10.276,-17.941,-20.647,-5.1048,3.0674,-33.401,-4.8587,-11.311,-30.757,-11.447,2.8782,0,0,0,0,0,0,0,0,0,0,0,0,0,0,0,0,
249,-10.117,-99.579,-53.726,1.9568,-31.913,-13.412,-25.994,-16.644,-11.178,-26.94,-42.516,-0.91786,-6.3557,-25.833,-10.601,1.8813,0,0,0,0,0,0,0,0,0,0,0,0,0,0,0,0,
250,-18.143,-106.68,-51.704,-21.066,-39.952,-63.549,-9.0476,-10.643,-28.253,-36.947,-38.631,-11.978,-21.401,-26.91,-14.754,-13.116,0,0,0,0,0,0,0,0,0,0,0,0,0,0,0,0,
251,-52.167,-119.79,-82.683,-70.089,-70.991,-55.684,-37.102,-38.642,-65.329,-60.955,-52.747,-31.039,-31.448,-43.988,-21.908,-26.114,0,0,0,0,0,0,0,0,0,0,0,0,0,0,0,0,
252,-23.19,-113.9,-81.664,-37.111,-64.029,-18.819,-46.158,-39.642,-51.405,-50.963,-21.863,-15.1,-11.495,-19.066,-11.064,-18.113,0,0,0,0,0,0,0,0,0,0,0,0,0,0,0,0,
253,-14.213,-100.01,-63.646,-24.133,-53.067,-23.955,-29.216,-29.642,-30.481,-44.972,-23.98,-12.161,-7.5422,-18.146,-6.2208,-2.1126,0,0,0,0,0,0,0,0,0,0,0,0,0,0,0,0,
254,-9.2343,-107.12,-59.629,-12.156,-45.104,-9.0888,-27.272,-22.642,-2.5564,-34.979,-41.096,-15.222,-12.589,-30.227,-12.378,5.8881,0,0,0,0,0,0,0,0,0,0,0,0,0,0,0,0,
255,-35.254,-110.24,-82.614,-35.178,-71.141,-58.221,-50.331,-38.644,-11.633,-50.987,-46.212,-32.284,-16.636,-48.309,-23.536,-9.1118,0,0,0,0,0,0,0,0,0,0,0,0,0,0,0,0,
256,-21.274,-86.358,-67.601,-40.201,-55.179,-18.354,-58.389,-51.645,-38.709,-41.996,-10.33,-9.3478,-3.6861,-12.393,-17.695,-12.112,0,0,0,0,0,0,0,0,0,0,0,0,0,0,0,0,
257,8.7084,-56.477,-33.588,10.779,-19.214,5.516,-7.448,-9.6472,-5.7847,-12.004,-7.4462,0.59018,1.2652,-0.47491,-8.8539,2.8866,0,0,0,0,0,0,0,0,0,0,0,0,0,0,0,0,
258,-0.30856,-76.6,-16.578,-17.241,-7.2516,19.385,10.492,5.3484,-14.861,-13.013,5.4352,13.527,17.215,16.44,5.9855,22.884,0,0,0,0,0,0,0,0,0,0,0,0,0,0,0,0,
259,20.674,-59.727,6.4289,-0.26417,16.71,32.254,36.43,20.342,1.0608,2.9755,27.315,31.461,25.163,21.353,24.824,51.879,0,0,0,0,0,0,0,0,0,0,0,0,0,0,0,0,
260,27.659,-48.855,9.4356,7.7134,20.673,18.126,45.367,36.336,33.984,4.9665,32.195,39.396,29.111,27.266,34.663,70.876,0,0,0,0,0,0,0,0,0,0,0,0,0,0,0,0,
261,39.645,-44.984,15.442,0.69294,19.637,21.997,46.306,32.331,29.907,-9.0425,24.078,38.331,22.06,46.181,31.504,69.874,0,0,0,0,0,0,0,0,0,0,0,0,0,0,0,0,
262,54.631,-45.116,22.445,9.6715,29.6,75.869,60.244,30.324,32.83,-1.0529,29.962,25.266,10.007,46.096,21.345,49.873,0,0,0,0,0,0,0,0,0,0,0,0,0,0,0,0,
263,47.617,-50.251,22.445,-1.3502,27.562,54.74,59.18,30.316,34.75,2.9358,34.844,31.201,16.955,49.01,18.184,34.871,0,0,0,0,0,0,0,0,0,0,0,0,0,0,0,0,
264,55.603,-27.39,44.444,32.628,46.524,45.612,62.115,41.306,41.669,10.923,40.725,49.136,24.902,58.922,28.023,37.869,0,0,0,0,0,0,0,0,0,0,0,0,0,0,0,0,
265,107.59,-9.5301,66.441,51.608,71.487,93.486,84.049,67.297,66.59,47.911,74.605,58.069,34.849,81.833,47.86,50.867,0,0,0,0,0,0,0,0,0,0,0,0,0,0,0,0,
266,104.58,2.3275,68.437,8.5888,64.451,108.36,89.981,60.286,89.511,55.899,72.484,45.001,13.795,82.742,54.695,49.864,0,0,0,0,0,0,0,0,0,0,0,0,0,0,0,0,
267,94.566,14.181,66.431,-22.433,65.413,97.228,80.911,49.272,79.429,59.885,59.361,43.931,4.7394,72.649,53.528,34.859,0,0,0,0,0,0,0,0,0,0,0,0,0,0,0,0,
268,98.552,42.032,70.422,-6.4549,72.375,84.099,87.84,53.257,87.346,63.87,85.237,51.861,12.684,88.554,63.36,24.854,0,0,0,0,0,0,0,0,0,0,0,0,0,0,0,0,
269,85.541,44.881,63.411,6.5251,59.337,80.973,82.769,48.243,83.263,46.854,100.11,34.791,3.6276,78.46,68.193,10.849,0,0,0,0,0,0,0,0,0,0,0,0,0,0,0,0,
270,90.528,27.728,48.398,0.50482,48.298,70.843,70.697,38.228,65.178,53.837,75.987,13.719,-9.4304,50.363,52.024,-8.1563,0,0,0,0,0,0,0,0,0,0,0,0,0,0,0,0,
271,77.516,1.5732,21.383,-11.516,20.26,67.714,28.623,14.211,58.095,41.821,20.861,-9.3538,-26.489,9.2646,16.854,-42.163,0,0,0,0,0,0,0,0,0,0,0,0,0,0,0,0,
272,41.504,-4.5844,16.365,-14.536,12.22,61.586,13.548,10.192,42.009,13.804,4.7355,-13.428,-37.548,3.1656,-9.3165,-69.171,0,0,0,0,0,0,0,0,0,0,0,0,0,0,0,0,
273,54.493,40.255,32.344,38.443,37.179,30.458,22.471,12.172,43.923,34.785,18.608,26.497,9.3913,25.065,-8.4889,-50.181,0,0,0,0,0,0,0,0,0,0,0,0,0,0,0,0,
274,62.482,53.093,62.321,28.423,62.138,25.33,44.392,59.149,59.836,53.767,43.478,37.42,19.33,40.962,15.338,-15.192,0,0,0,0,0,0,0,0,0,0,0,0,0,0,0,0,
275,48.47,24.929,32.295,-37.6,33.095,43.2,32.31,40.125,50.747,32.747,21.348,-2.6572,-10.732,6.8578,19.163,-21.204,0,0,0,0,0,0,0,0,0,0,0,0,0,0,0,0,
276,41.458,30.76,23.267,7.3776,32.052,40.07,8.2272,11.1,29.66,23.727,43.217,14.264,14.205,23.752,16.988,-31.217,0,0,0,0,0,0,0,0,0,0,0,0,0,0,0,0,
277,35.448,36.589,32.236,-3.6439,33.008,22.942,28.145,28.074,35.571,36.705,42.086,6.1862,1.1429,25.646,11.813,-34.23,0,0,0,0,0,0,0,0,0,0,0,0,0,0,0,0,
278,19.438,30.416,15.203,0.33496,24.963,7.8136,10.061,19.047,14.481,11.682,2.9557,-7.892,-29.92,14.541,2.6383,-43.243,0,0,0,0,0,0,0,0,0,0,0,0,0,0,0,0,
279,43.428,45.241,35.168,15.315,42.918,33.686,21.976,32.019,32.39,41.658,5.825,-4.9709,-24.983,19.434,-5.5371,-46.257,0,0,0,0,0,0,0,0,0,0,0,0,0,0,0,0,
280,23.417,46.065,32.132,12.292,34.873,-5.4426,18.89,17.99,45.297,33.635,-4.3071,-22.051,-25.047,0.32537,-11.713,-45.271,0,0,0,0,0,0,0,0,0,0,0,0,0,0,0,0,
281,1.4073,45.888,14.094,32.269,25.829,-30.573,-7.1965,-5.0382,25.206,18.611,-37.441,-36.132,-36.113,-25.785,-32.89,-53.286,0,0,0,0,0,0,0,0,0,0,0,0,0,0,0,0,
282,4.3981,46.709,15.054,9.2482,22.785,-6.7011,-27.285,8.9313,24.113,27.585,-33.575,-21.213,-25.178,-23.895,-47.068,-56.302,0,0,0,0,0,0,0,0,0,0,0,0,0,0,0,0,
283,-7.6112,34.527,-9.9889,-16.773,-1.261,-7.8288,-20.373,-3.1005,0.01966,6.5603,-49.709,-36.294,-27.244,-38.006,-52.245,-54.318,0,0,0,0,0,0,0,0,0,0,0,0,0,0,0,0,
284,-8.62,43.343,-20.034,6.204,-4.3073,-32.956,-36.465,-29.134,-29.075,-3.4658,-55.844,-25.377,-21.31,-36.119,-49.425,-41.335,0,0,0,0,0,0,0,0,0,0,0,0,0,0,0,0,
285,12.371,44.156,8.918,20.181,20.645,-22.084,-20.558,5.83,13.828,25.506,-14.981,-2.4623,-5.378,-13.234,-34.606,-24.354,0,0,0,0,0,0,0,0,0,0,0,0,0,0,0,0,
286,1.3632,31.967,-4.131,0.16256,10.598,-21.212,-11.651,7.7938,11.732,8.4765,-32.115,-25.547,-21.446,-37.348,-33.786,-25.372,0,0,0,0,0,0,0,0,0,0,0,0,0,0,0,0,
287,-3.6439,16.776,-13.183,8.1381,1.5504,-24.34,-28.743,-12.242,13.635,-4.5536,-48.252,-41.633,-35.516,-41.464,-43.967,-42.392,0,0,0,0,0,0,0,0,0,0,0,0,0,0,0,0,
288,16.348,26.582,-6.2367,49.112,5.5016,1.5331,-26.838,-18.28,6.5369,-1.5847,-16.389,-35.719,-27.586,-24.582,-42.149,-55.411,0,0,0,0,0,0,0,0,0,0,0,0,0,0,0,0,
289,14.339,35.386,-9.2926,17.089,6.453,-5.5946,-14.934,-11.319,11.437,16.384,-19.527,-54.805,-39.655,-27.699,-38.331,-62.431,0,0,0,0,0,0,0,0,0,0,0,0,0,0,0,0,
290,-11.67,25.188,-34.352,-4.9333,-21.598,-8.7217,-36.032,-37.36,-1.6662,0.34954,-24.665,-58.89,-36.725,-30.816,-40.512,-59.449,0,0,0,0,0,0,0,0,0,0,0,0,0,0,0,0,
291,-22.681,11.987,-46.414,-17.958,-30.649,-31.85,-43.13,-44.402,-13.771,-7.6862,-12.803,-50.976,-25.795,-30.934,-35.692,-37.467,0,0,0,0,0,0,0,0,0,0,0,0,0,0,0,0,
292,-37.689,-3.213,-54.476,-34.983,-36.698,-21.979,-45.231,-41.445,-18.872,-23.72,-4.9428,-46.063,-25.866,-31.054,-33.873,-17.486,0,0,0,0,0,0,0,0,0,0,0,0,0,0,0,0,
293,-39.698,-6.4147,-52.539,-19.005,-39.748,-13.107,-50.332,-37.489,-34.975,-20.755,-8.0827,-32.152,-3.9382,-21.176,-34.055,-3.5064,0,0,0,0,0,0,0,0,0,0,0,0,0,0,0,0,
294,-32.707,-12.617,-58.605,28.973,-41.798,-41.234,-52.436,-29.534,-22.08,-25.791,-20.221,-24.241,1.989,-32.297,-29.238,0.47144,0,0,0,0,0,0,0,0,0,0,0,0,0,0,0,0,
295,-33.716,-35.822,-54.674,3.948,-38.848,-33.361,-52.541,-22.581,-4.1859,-17.827,-5.3604,-23.332,-12.085,-28.42,-23.421,0.44841,0,0,0,0,0,0,0,0,0,0,0,0,0,0,0,0,
296,-37.725,-19.032,-57.745,-18.078,-42.901,-39.489,-49.646,-41.629,-17.292,-9.8649,-5.5003,-13.423,-8.1596,-20.543,-16.604,6.4264,0,0,0,0,0,0,0,0,0,0,0,0,0,0,0,0,
297,-34.732,-4.2435,-51.818,-3.103,-31.953,-19.614,-39.752,-27.678,-12.399,-6.9042,-6.6403,-5.5156,-9.2354,-12.666,-10.787,1.4037,0,0,0,0,0,0,0,0,0,0,0,0,0,0,0,0,
298,-44.739,-2.4578,-37.893,-9.1282,-21.006,-51.741,-38.858,-7.7281,-26.508,-17.944,1.2179,-1.6099,-9.313,-3.7915,-5.9736,-9.6221,0,0,0,0,0,0,0,0,0,0,0,0,0,0,0,0,
299,-27.747,4.3255,-17.97,18.847,-0.05929,-28.869,-19.965,4.2205,-15.616,17.015,14.075,8.295,2.6086,4.0821,-8.1616,-22.65,0,0,0,0,0,0,0,0,0,0,0,0,0,0,0,0,
300,-10.753,-0.89172,-8.048,39.823,11.888,-3.9952,-6.0728,11.168,16.277,26.974,18.932,9.1998,-4.4703,5.9562,-13.35,-40.678,0,0,0,0,0,0,0,0,0,0,0,0,0,0,0,0,
301,-8.7598,-10.11,0.87137,39.796,14.834,0.87852,1.8187,21.115,18.169,5.9326,50.789,19.105,9.4515,19.83,-7.5364,-32.704,0,0,0,0,0,0,0,0,0,0,0,0,0,0,0,0,
302,3.2334,9.6711,-4.2116,9.7708,16.779,4.7524,1.7102,17.062,8.0578,4.8902,2.6467,-7.9898,-0.62659,-16.297,-19.721,-33.728,0,0,0,0,0,0,0,0,0,0,0,0,0,0,0,0,
303,32.23,19.45,13.704,13.748,33.725,36.63,2.6009,12.008,27.948,16.847,14.506,14.916,26.296,4.5777,-23.905,-24.751,0,0,0,0,0,0,0,0,0,0,0,0,0,0,0,0,
304,23.227,5.2276,23.619,-1.2766,35.67,13.509,28.491,34.953,22.839,6.8033,25.366,13.822,20.218,6.4521,-14.089,-12.776,0,0,0,0,0,0,0,0,0,0,0,0,0,0,0,0,
305,10.223,64.004,19.532,16.698,40.616,-4.6134,1.379,24.897,21.728,40.758,5.2245,3.7255,0.13839,-4.6755,-12.276,-16.802,0,0,0,0,0,0,0,0,0,0,0,0,0,0,0,0,
306,-2.7807,78.778,30.442,22.672,48.561,1.2637,14.266,32.837,14.617,50.713,28.082,25.628,23.057,31.196,-0.46393,-11.831,0,0,0,0,0,0,0,0,0,0,0,0,0,0,0,0,
307,1.2141,58.55,38.35,44.646,58.504,18.138,32.15,56.777,9.5039,25.665,29.936,28.529,23.975,25.065,7.3467,-4.8591,0,0,0,0,0,0,0,0,0,0,0,0,0,0,0,0,
308,15.209,68.32,31.257,60.617,55.448,28.012,31.034,51.716,36.391,34.617,14.788,14.429,10.892,12.932,-0.84359,-6.8879,0,0,0,0,0,0,0,0,0,0,0,0,0,0,0,0,
309,8.2025,57.088,25.161,48.588,44.391,20.886,21.917,30.653,23.276,20.567,23.638,8.3278,5.8081,18.798,-1.0361,-6.9194,0,0,0,0,0,0,0,0,0,0,0,0,0,0,0,0,
310,12.195,55.854,25.062,17.56,48.332,34.759,23.797,18.589,39.158,26.516,5.4878,-1.7754,-9.2774,15.661,3.7693,-16.954,0,0,0,0,0,0,0,0,0,0,0,0,0,0,0,0,
311,-9.8128,53.617,7.9598,-13.468,29.272,0.63325,22.677,10.524,6.0405,22.463,15.337,3.1206,-5.3642,25.524,19.574,-20.988,0,0,0,0,0,0,0,0,0,0,0,0,0,0,0,0,
312,-13.82,45.378,-5.1439,-10.494,14.212,-24.493,7.5557,10.457,-37.078,-0.5907,29.186,26.017,9.5485,32.387,35.38,-1.0222,0,0,0,0,0,0,0,0,0,0,0,0,0,0,0,0,
313,-19.829,56.137,-14.251,26.478,11.15,3.3808,6.4333,26.388,-8.2001,1.3529,-1.9644,23.912,0.46093,8.2494,19.186,2.9434,0,0,0,0,0,0,0,0,0,0,0,0,0,0,0,0,
314,-25.839,52.895,-26.361,17.449,-3.9136,-1.7474,-11.69,19.319,-16.322,-15.705,5.8832,32.805,13.372,9.1103,7.9904,1.9064,0,0,0,0,0,0,0,0,0,0,0,0,0,0,0,0,
315,-1.849,61.651,-19.472,20.42,3.0232,17.125,-2.8151,18.247,19.555,1.2365,48.731,44.698,25.283,27.971,21.793,10.867,0,0,0,0,0,0,0,0,0,0,0,0,0,0,0,0,
316,-13.859,66.405,-18.585,44.389,6.9596,13.998,22.059,29.175,6.431,2.1776,21.577,36.588,22.192,24.83,32.594,15.826,0,0,0,0,0,0,0,0,0,0,0,0,0,0,0,0,
317,-32.866,49.158,-23.699,76.358,-3.1036,21.87,12.934,26.102,-48.691,-7.8806,-2.5778,26.477,29.1,2.6882,30.394,15.784,0,0,0,0,0,0,0,0,0,0,0,0,0,0,0,0,
318,0.12648,37.911,-22.815,20.328,3.8337,45.744,-4.1927,28.027,-30.815,-12.939,10.267,20.366,28.007,4.5449,28.194,16.742,0,0,0,0,0,0,0,0,0,0,0,0,0,0,0,0,
319,7.1189,43.661,-7.9322,-1.7031,15.77,-3.3825,17.679,25.952,-5.9371,-1.9975,19.11,14.253,19.913,7.3987,33.993,22.698,0,0,0,0,0,0,0,0,0,0,0,0,0,0,0,0,
320,-18.889,26.41,-25.052,14.266,-5.2936,-10.511,-7.4519,11.874,-10.06,-24.058,-10.049,-8.8603,-2.1827,-21.748,22.79,15.651,0,0,0,0,0,0,0,0,0,0,0,0,0,0,0,0,
321,-15.895,20.157,-28.172,3.2378,-3.3568,-5.6383,-21.581,-0.203,-25.183,-25.118,-13.206,-6.9737,-2.2783,-19.893,5.5874,5.6035,0,0,0,0,0,0,0,0,0,0,0,0,0,0,0,0,
322,-14.902,18.904,-33.296,15.207,-14.422,-21.765,-16.712,2.7176,-19.309,-24.18,26.635,18.911,29.624,16.961,23.385,21.555,0,0,0,0,0,0,0,0,0,0,0,0,0,0,0,0,
323,-35.91,11.648,-44.423,20.173,-23.489,-17.893,-5.8461,0.63525,-33.435,-43.243,9.4744,5.7947,12.526,13.812,50.181,34.505,0,0,0,0,0,0,0,0,0,0,0,0,0,0,0,0,
324,-36.915,12.391,-46.552,59.138,-23.556,-1.0206,-9.9804,-11.448,-49.559,-47.305,-4.687,1.677,2.4267,12.663,57.978,26.456,0,0,0,0,0,0,0,0,0,0,0,0,0,0,0,0,
325,-48.924,-21.869,-65.684,-6.8966,-49.625,-47.149,-19.116,-22.533,-57.688,-62.372,-17.849,-7.4412,-0.67254,-4.4881,42.775,10.407,0,0,0,0,0,0,0,0,0,0,0,0,0,0,0,0,
326,-49.935,-7.1288,-64.819,-19.93,-40.696,-37.277,-33.254,-33.618,-78.819,-63.44,-29.009,-8.5589,-4.7713,-11.639,29.572,-0.64336,0,0,0,0,0,0,0,0,0,0,0,0,0,0,0,0,
327,-39.945,8.6103,-46.955,3.0349,-25.766,4.5953,-27.392,-22.704,-64.949,-51.508,-14.171,-8.6775,-10.87,7.2097,30.369,1.3063,0,0,0,0,0,0,0,0,0,0,0,0,0,0,0,0,
328,-47.954,6.347,-48.094,1.0004,-30.838,-30.532,-13.531,-22.793,-57.082,-61.577,2.668,-11.797,-16.971,17.058,39.167,-6.7453,0,0,0,0,0,0,0,0,0,0,0,0,0,0,0,0,
329,-37.963,9.0819,-46.234,17.965,-24.909,-11.662,-5.6728,-4.8844,-39.212,-58.646,15.505,-11.918,-12.072,13.905,42.963,-23.8,0,0,0,0,0,0,0,0,0,0,0,0,0,0,0,0,
330,-52.973,6.8169,-58.376,41.93,-40.981,6.2083,-24.815,-15.975,-74.343,-56.715,6.341,-8.0392,-14.175,7.7503,39.758,-27.854,0,0,0,0,0,0,0,0,0,0,0,0,0,0,0,0,
331,-42.983,-16.45,-72.52,-12.107,-57.054,-15.921,-27.959,-30.067,-74.477,-56.786,-22.824,-38.161,-38.279,-24.406,23.552,-38.908,0,0,0,0,0,0,0,0,0,0,0,0,0,0,0,0,
332,-42.994,-13.717,-80.667,-6.1439,-57.127,-2.0517,-60.105,-50.161,-79.61,-51.858,-10.99,-33.284,-18.384,-27.563,10.346,-37.962,0,0,0,0,0,0,0,0,0,0,0,0,0,0,0,0,
333,-34.004,-17.986,-65.815,-37.184,-49.201,12.818,-46.251,-44.256,-48.744,-32.931,6.8438,-32.408,-13.489,-15.721,13.14,-23.017,0,0,0,0,0,0,0,0,0,0,0,0,0,0,0,0,
334,-25.014,-56.256,-74.966,-68.226,-57.276,0.68857,-36.398,-60.352,-37.878,-57.004,-1.3231,-60.533,-34.594,-19.879,12.933,-21.075,0,0,0,0,0,0,0,0,0,0,0,0,0,0,0,0,
335,-33.025,-46.528,-78.119,-29.267,-58.352,7.5578,-21.545,-70.45,-46.014,-56.08,25.509,-35.659,-11.701,3.9619,22.725,-11.134,0,0,0,0,0,0,0,0,0,0,0,0,0,0,0,0,
336,-23.037,-51.8,-66.275,-52.305,-52.429,31.428,-8.6935,-46.549,-56.153,-39.157,13.34,-23.787,-1.8087,-4.197,24.516,1.8041,0,0,0,0,0,0,0,0,0,0,0,0,0,0,0,0,
337,-44.049,-49.075,-70.432,-42.343,-49.506,-14.702,-15.842,-44.649,-71.292,-40.236,-31.828,-27.915,-3.9168,-32.356,4.3072,6.742,0,0,0,0,0,0,0,0,0,0,0,0,0,0,0,0,
338,-35.06,-1.3505,-58.592,5.6169,-43.584,-25.831,-31.992,-43.752,-43.431,-31.315,-16.997,-19.043,-5.0252,-24.515,-8.9014,6.68,0,0,0,0,0,0,0,0,0,0,0,0,0,0,0,0,
339,-43.072,-29.628,-55.755,-18.424,-43.665,-9.9613,-31.143,-39.856,-37.571,-50.397,-31.166,-25.173,-25.134,-25.675,-15.11,-3.3821,0,0,0,0,0,0,0,0,0,0,0,0,0,0,0,0,
340,-48.086,-43.908,-69.922,-44.467,-51.747,-39.092,-41.296,-46.96,-61.713,-61.479,-28.336,-16.303,-28.244,-13.837,-6.3184,-7.4451,0,0,0,0,0,0,0,0,0,0,0,0,0,0,0,0,
341,-28.1,-14.188,-55.088,-21.513,-41.828,-6.2225,-40.449,-37.065,-49.855,-56.56,4.4944,-6.4333,-17.354,19.001,12.473,-4.5088,0,0,0,0,0,0,0,0,0,0,0,0,0,0,0,0,
342,-22.113,11.533,-37.255,-42.556,-21.908,-3.3529,-10.603,-25.171,-23.997,-27.642,-0.67449,-21.564,-19.464,17.841,20.264,-10.573,0,0,0,0,0,0,0,0,0,0,0,0,0,0,0,0,
343,-53.127,-19.747,-65.423,-61.597,-50.988,-33.485,-35.757,-42.278,-52.139,-44.723,-22.845,-25.695,-29.576,-8.3208,12.054,-23.638,0,0,0,0,0,0,0,0,0,0,0,0,0,0,0,0,
344,-73.141,-34.028,-76.593,-46.638,-62.069,-47.617,-56.912,-49.385,-80.281,-62.807,-16.017,-16.827,-29.688,-5.4833,2.8457,-23.703,0,0,0,0,0,0,0,0,0,0,0,0,0,0,0,0,
345,-67.154,-24.309,-67.765,-32.68,-48.15,-20.747,-30.069,-45.494,-61.425,-62.891,-29.189,-26.959,-37.8,-9.6458,-8.3633,-28.768,0,0,0,0,0,0,0,0,0,0,0,0,0,0,0,0,
346,-53.168,-10.592,-63.94,27.275,-51.233,-24.879,-41.227,-45.605,-52.571,-54.977,-40.361,-12.092,-20.913,-12.81,-13.572,-40.835,0,0,0,0,0,0,0,0,0,0,0,0,0,0,0,0,
347,-54.183,-29.878,-80.119,-23.773,-68.319,-44.011,-45.386,-34.718,-51.718,-61.066,-43.534,-19.227,-19.027,-26.975,-18.781,-47.902,0,0,0,0,0,0,0,0,0,0,0,0,0,0,0,0,
348,-75.198,-28.164,-93.3,-48.821,-75.405,-39.142,-72.546,-61.832,-75.864,-77.155,-51.707,-27.361,-16.142,-37.14,-28.991,-47.969,0,0,0,0,0,0,0,0,0,0,0,0,0,0,0,0,
349,-69.214,-40.452,-83.483,-50.869,-71.492,-54.273,-73.706,-55.947,-69.011,-71.244,-33.881,-29.497,-14.257,-30.307,-27.2,-40.036,0,0,0,0,0,0,0,0,0,0,0,0,0,0,0,0,
350,-69.23,-54.742,-93.669,-58.914,-75.581,-42.406,-65.869,-69.063,-85.16,-79.336,-29.056,-46.632,-28.372,-27.473,-15.409,-40.105,0,0,0,0,0,0,0,0,0,0,0,0,0,0,0,0,
351,-57.246,-36.034,-86.857,-46.961,-69.672,-39.538,-63.032,-74.182,-74.311,-63.43,-52.23,-52.768,-40.488,-38.639,-26.618,-55.175,0,0,0,0,0,0,0,0,0,0,0,0,0,0,0,0,
352,-48.261,-41.327,-75.047,-33.01,-64.763,-31.67,-50.195,-57.3,-59.461,-62.525,-41.404,-59.904,-56.604,-45.805,-46.827,-69.244,0,0,0,0,0,0,0,0,0,0,0,0,0,0,0,0,
353,-50.277,-38.621,-95.24,-18.059,-77.855,-18.802,-53.359,-67.422,-79.613,-78.622,-54.58,-63.041,-53.72,-53.972,-64.037,-80.315,0,0,0,0,0,0,0,0,0,0,0,0,0,0,0,0,
354,-41.293,-35.916,-72.435,-32.111,-58.948,-46.936,-37.524,-66.545,-51.765,-74.719,-60.756,-40.18,-34.839,-47.141,-60.247,-84.388,0,0,0,0,0,0,0,0,0,0,0,0,0,0,0,0,
355,-53.31,-27.21,-57.63,-43.162,-45.041,-46.068,-42.69,-51.668,-49.919,-58.817,-55.931,-30.32,-24.958,-42.308,-46.457,-77.461,0,0,0,0,0,0,0,0,0,0,0,0,0,0,0,0,
356,-23.328,-32.505,-39.827,-32.215,-25.133,-9.2002,-35.857,-42.792,-32.072,-30.915,-45.108,-21.46,-20.078,-27.477,-33.667,-64.535,0,0,0,0,0,0,0,0,0,0,0,0,0,0,0,0,
357,-23.344,-30.801,-23.023,-16.267,-15.224,-16.333,-24.023,-33.916,-34.224,-30.012,-25.285,-3.6005,-12.199,-5.6455,-22.877,-50.61,0,0,0,0,0,0,0,0,0,0,0,0,0,0,0,0,
358,3.6395,-6.0972,0.77776,19.682,14.683,1.5327,-2.1916,-2.0418,-3.3771,-8.1099,3.5368,16.258,2.6792,24.184,-5.0858,-27.686,0,0,0,0,0,0,0,0,0,0,0,0,0,0,0,0,
359,29.623,-2.3938,4.5777,1.6301,14.591,39.401,25.639,16.831,35.469,-2.2078,59.358,35.117,36.558,60.014,34.704,17.239,0,0,0,0,0,0,0,0,0,0,0,0,0,0,0,0,
360,11.606,-40.69,-11.624,-8.4214,-5.5013,48.269,41.47,6.7043,-5.6846,-16.306,58.18,34.976,40.437,59.845,65.494,44.163,0,0,0,0,0,0,0,0,0,0,0,0,0,0,0,0,
361,19.589,-17.987,-15.827,29.526,-4.5945,49.136,29.301,5.5765,-20.838,-15.406,37.002,37.833,32.315,34.676,66.282,41.085,0,0,0,0,0,0,0,0,0,0,0,0,0,0,0,0,
362,-12.43,-28.287,-34.034,3.4722,-29.69,6.001,1.13,-5.5539,-26.994,-39.509,-9.178,2.6898,-0.80814,-10.495,21.071,-7.9961,0,0,0,0,0,0,0,0,0,0,0,0,0,0,0,0,
363,-29.451,-35.588,-51.245,-4.5831,-45.789,-38.136,-25.044,-31.687,-52.154,-61.613,-38.359,-25.454,-26.932,-41.667,-33.141,-67.078,0,0,0,0,0,0,0,0,0,0,0,0,0,0,0,0,
364,-48.474,-41.89,-68.458,-31.641,-57.889,-66.271,-47.218,-44.821,-59.313,-66.719,-64.54,-34.598,-24.055,-51.84,-59.351,-90.159,0,0,0,0,0,0,0,0,0,0,0,0,0,0,0,0,
365,-61.495,-48.193,-75.673,-23.696,-68.989,-45.405,-61.392,-56.954,-50.471,-77.824,-50.719,-41.742,-21.179,-41.011,-54.56,-85.239,0,0,0,0,0,0,0,0,0,0,0,0,0,0,0,0,
366,-58.515,-41.496,-73.888,-4.7492,-62.089,-45.539,-54.567,-53.089,-57.631,-63.931,-45.899,-56.886,-45.303,-49.183,-50.769,-86.32,0,0,0,0,0,0,0,0,0,0,0,0,0,0,0,0,
367,-68.537,-33.8,-75.106,-42.805,-65.19,-82.675,-69.744,-64.226,-74.791,-56.038,-81.081,-60.033,-42.428,-65.357,-56.979,-86.404,0,0,0,0,0,0,0,0,0,0,0,0,0,0,0,0,
368,-38.561,-15.105,-51.326,-59.864,-43.293,-45.81,-61.923,-63.366,-45.951,-39.148,-44.263,-35.182,-19.555,-36.532,-40.19,-63.488,0,0,0,0,0,0,0,0,0,0,0,0,0,0,0,0,
369,-16.584,-9.411,-49.549,-32.924,-33.397,-24.947,-35.103,-47.508,-15.113,-24.259,-27.446,-26.332,-15.682,-22.708,-17.402,-38.575,0,0,0,0,0,0,0,0,0,0,0,0,0,0,0,0,
370,-41.608,-3.7179,-53.774,10.014,-45.502,-28.085,-35.285,-34.652,-26.275,-25.371,-32.631,-11.483,4.1898,-24.885,-7.6143,-27.663,0,0,0,0,0,0,0,0,0,0,0,0,0,0,0,0,
371,-42.635,-25.025,-71.001,-17.047,-61.608,-51.223,-43.467,-31.795,-48.439,-51.484,-45.815,-25.634,-5.9388,-40.061,-18.825,-34.75,0,0,0,0,0,0,0,0,0,0,0,0,0,0,0,0,
372,-44.663,-22.333,-74.23,-21.107,-58.714,-57.359,-62.649,-45.939,-57.606,-56.599,-35.996,-18.784,-3.0673,-32.236,-33.034,-39.837,0,0,0,0,0,0,0,0,0,0,0,0,0,0,0,0,
373,-40.685,-18.643,-51.46,-6.1689,-43.822,-40.497,-47.831,-37.084,-35.771,-30.714,-30.178,-9.9355,1.8028,-24.412,-30.242,-36.924,0,0,0,0,0,0,0,0,0,0,0,0,0,0,0,0,
374,-31.71,-6.9536,-53.692,37.77,-39.929,-25.633,-44.014,-37.232,-34.935,-37.83,-38.36,-14.086,-5.327,-29.587,-20.45,-40.013,0,0,0,0,0,0,0,0,0,0,0,0,0,0,0,0,
375,-15.737,-3.2657,-49.926,-39.294,-39.038,-68.77,-30.196,-32.38,-27.102,-35.948,-23.542,-10.238,-9.4574,-22.762,-13.658,-52.102,0,0,0,0,0,0,0,0,0,0,0,0,0,0,0,0,
376,-21.765,4.4206,-36.162,-30.36,-28.149,-28.908,-27.38,-26.528,-15.271,-26.067,-16.724,7.6108,23.413,-8.9365,-2.8654,-48.191,0,0,0,0,0,0,0,0,0,0,0,0,0,0,0,0,
377,-17.792,7.1076,-34.399,-2.4242,-23.258,-5.0446,-11.565,-15.675,-22.439,-27.186,-12.906,-2.539,15.285,-6.1108,1.9277,-33.28,0,0,0,0,0,0,0,0,0,0,0,0,0,0,0,0,
378,-12.82,-18.207,-34.637,-3.4876,-30.368,-47.18,-6.7508,-19.825,-34.608,-38.307,-10.088,9.3101,24.155,-7.2857,5.7212,-8.3696,0,0,0,0,0,0,0,0,0,0,0,0,0,0,0,0,
379,4.1521,-13.522,-18.877,22.447,-11.48,-18.319,-7.9355,-4.9751,-19.777,-26.429,25.728,16.158,20.024,9.5385,10.515,-6.4599,0,0,0,0,0,0,0,0,0,0,0,0,0,0,0,0,
380,-0.87671,-21.837,-29.119,32.381,-20.592,5.5434,-6.1222,-9.1274,-19.947,-25.553,23.544,13.005,22.893,15.362,22.309,-13.552,0,0,0,0,0,0,0,0,0,0,0,0,0,0,0,0,
381,-10.906,-30.155,-25.363,-13.687,-24.705,-5.5944,-4.3103,-10.28,-1.1184,-26.676,19.358,17.851,32.761,22.184,37.1,0.35338,0,0,0,0,0,0,0,0,0,0,0,0,0,0,0,0,
382,-18.936,-36.473,-27.608,-30.754,-21.818,-20.732,-10.499,-12.434,-10.289,-27.801,20.173,15.696,24.629,15.005,40.892,16.259,0,0,0,0,0,0,0,0,0,0,0,0,0,0,0,0,
383,-5.967,-34.791,-27.855,-9.8227,-24.933,-2.8704,-11.689,-19.59,-23.461,-23.927,27.986,21.54,32.495,19.827,36.684,21.164,0,0,0,0,0,0,0,0,0,0,0,0,0,0,0,0,
384,-3.9966,-31.111,-13.103,-12.892,-15.049,-12.01,2.1227,-9.7464,-27.633,-17.054,27.801,21.385,30.362,20.65,30.478,19.07,0,0,0,0,0,0,0,0,0,0,0,0,0,0,0,0,
385,-5.0266,-28.431,-13.353,-0.96034,-8.1641,10.852,-2.0666,-7.9034,-4.8057,-15.18,32.615,17.231,26.23,16.474,20.273,2.9766,0,0,0,0,0,0,0,0,0,0,0,0,0,0,0,0,
386,-5.0585,-28.751,-7.6049,26.971,-6.2814,32.712,9.7424,4.9383,13.02,3.6905,34.43,19.076,27.096,27.297,19.068,-4.1177,0,0,0,0,0,0,0,0,0,0,0,0,0,0,0,0,
387,5.9094,-40.07,-2.8586,38.901,-4.3998,8.5736,24.552,5.7797,15.844,-9.4405,22.244,6.9209,9.9629,21.121,20.864,-12.213,0,0,0,0,0,0,0,0,0,0,0,0,0,0,0,0,
388,2.8774,-40.39,-12.114,26.829,-10.519,5.4347,14.361,-2.3795,-17.332,-18.572,22.058,3.7648,10.828,13.945,25.661,-16.31,0,0,0,0,0,0,0,0,0,0,0,0,0,0,0,0,
389,3.8447,-47.711,-11.372,-21.243,-15.64,18.294,6.1696,-9.541,-12.508,-13.706,23.872,6.6078,17.693,16.769,32.458,-8.4074,0,0,0,0,0,0,0,0,0,0,0,0,0,0,0,0,
390,-1.1892,-49.033,-2.6313,-14.315,0.23869,8.1531,5.9762,-11.704,-4.6846,-10.84,27.685,7.4501,13.557,6.5915,28.255,-10.505,0,0,0,0,0,0,0,0,0,0,0,0,0,0,0,0,
391,15.776,-20.354,-0.89337,-5.3888,-2.8845,15.011,1.7806,0.13262,-4.863,-3.9752,18.498,1.2925,8.4204,-9.5867,19.053,-15.601,0,0,0,0,0,0,0,0,0,0,0,0,0,0,0,0,
392,6.74,-30.677,-15.157,-13.464,-18.008,9.8701,-11.417,-26.033,-6.0436,-24.112,28.311,7.1352,17.285,-7.7652,17.852,-17.698,0,0,0,0,0,0,0,0,0,0,0,0,0,0,0,0,
393,35.703,-15.001,18.578,8.4602,19.867,45.729,14.385,1.8011,15.775,11.751,65.124,22.977,32.148,21.056,34.651,-11.794,0,0,0,0,0,0,0,0,0,0,0,0,0,0,0,0,
394,43.666,-22.324,26.312,17.387,18.742,45.586,33.187,14.635,24.595,3.6124,51.937,29.819,36.012,31.878,48.451,-5.8908,0,0,0,0,0,0,0,0,0,0,0,0,0,0,0,0,
395,57.628,-34.648,11.043,9.3123,3.615,61.442,42.989,9.468,32.413,6.4719,45.748,24.66,20.875,21.699,45.25,-8.9885,0,0,0,0,0,0,0,0,0,0,0,0,0,0,0,0,
396,68.59,-21.972,23.773,50.237,18.488,64.299,49.791,13.299,40.23,6.3313,60.559,31.5,28.737,32.521,39.049,-8.0876,0,0,0,0,0,0,0,0,0,0,0,0,0,0,0,0,
397,28.553,-23.297,12.502,-6.8404,0.36023,37.158,55.592,16.128,14.047,-13.809,64.372,15.34,27.6,35.345,37.85,-4.1876,0,0,0,0,0,0,0,0,0,0,0,0,0,0,0,0,
398,44.514,-3.6227,25.23,-0.92121,19.231,83.017,48.392,10.955,24.864,-4.9516,60.185,18.18,38.463,37.168,43.652,0.71184,0,0,0,0,0,0,0,0,0,0,0,0,0,0,0,0,
399,40.476,-15.95,4.9541,-16.001,-6.8989,56.874,42.193,11.781,19.679,-9.0952,34.998,18.019,28.325,20.99,44.453,9.6105,0,0,0,0,0,0,0,0,0,0,0,0,0,0,0,0,
400,20.436,-22.278,-5.3232,-26.08,-18.031,48.732,30.992,-7.393,-6.5055,-26.24,50.811,21.859,27.187,23.813,45.255,17.509,0,0,0,0,0,0,0,0,0,0,0,0,0,0,0,0,
401,27.393,9.3932,11.396,7.8392,5.8341,52.588,47.789,8.4315,9.3056,-14.388,31.621,14.696,12.048,12.633,37.054,3.4039,0,0,0,0,0,0,0,0,0,0,0,0,0,0,0,0,
402,28.349,24.065,31.113,15.76,20.699,57.444,45.584,28.255,18.115,7.4635,31.431,25.534,17.909,22.453,30.854,-12.703,0,0,0,0,0,0,0,0,0,0,0,0,0,0,0,0,
403,24.308,15.736,19.831,22.679,11.564,25.299,41.38,28.079,-1.0722,2.3149,25.243,5.3712,14.77,6.2742,17.654,-31.811,0,0,0,0,0,0,0,0,0,0,0,0,0,0,0,0,
404,25.268,34.408,23.549,23.597,23.43,22.155,39.177,8.9016,0.74008,10.166,24.056,7.2092,16.631,6.0972,8.4571,-40.919,0,0,0,0,0,0,0,0,0,0,0,0,0,0,0,0,
405,14.226,26.081,29.266,-10.485,21.296,19.015,49.972,21.724,8.5528,4.0171,31.87,26.048,24.493,24.921,21.261,-21.026,0,0,0,0,0,0,0,0,0,0,0,0,0,0,0,0,
406,15.186,20.754,25.983,14.433,27.162,33.875,45.768,33.548,-3.6351,-7.1325,45.685,34.887,29.355,29.746,40.067,11.869,0,0,0,0,0,0,0,0,0,0,0,0,0,0,0,0,
407,12.145,11.428,16.7,-8.6466,13.029,33.735,39.566,25.372,6.1766,-10.281,-4.4999,16.728,11.218,-0.42862,20.875,12.764,0,0,0,0,0,0,0,0,0,0,0,0,0,0,0,0,
408,-14.895,-3.8982,-7.5846,-20.727,-14.105,30.595,9.3647,0.19585,-16.012,-23.432,-20.684,10.568,20.079,2.3978,-12.316,-10.342,0,0,0,0,0,0,0,0,0,0,0,0,0,0,0,0,
409,-7.9384,7.7752,-15.871,-11.809,-14.24,11.454,13.163,0.01865,-20.202,-29.585,-22.869,12.405,19.938,6.2231,-28.507,-26.45,0,0,0,0,0,0,0,0,0,0,0,0,0,0,0,0,
410,-14.983,24.447,-12.16,12.105,-14.377,-26.69,7.9601,8.8382,-24.394,-24.739,-12.056,25.242,26.797,14.048,-18.699,-25.56,0,0,0,0,0,0,0,0,0,0,0,0,0,0,0,0,
411,-38.027,18.118,-19.45,9.0197,-21.514,-35.835,5.756,15.656,-28.586,-23.895,-11.243,14.079,11.656,7.8735,-9.8924,-17.671,0,0,0,0,0,0,0,0,0,0,0,0,0,0,0,0,
412,-39.072,13.789,-25.741,-29.067,-22.653,-12.98,8.5513,8.474,-27.779,-27.051,5.5699,17.916,20.515,17.698,-5.0863,-1.7821,0,0,0,0,0,0,0,0,0,0,0,0,0,0,0,0,
413,-26.118,8.4609,-32.034,-10.154,-32.792,-14.124,6.345,1.2905,-38.972,-40.208,10.381,14.751,23.373,9.5222,-2.281,8.1052,0,0,0,0,0,0,0,0,0,0,0,0,0,0,0,0,
414,-12.166,27.131,-17.329,-20.241,-10.932,5.7313,-2.8611,7.1066,-6.1679,-12.366,23.192,9.587,9.2309,10.346,2.5243,5.991,0,0,0,0,0,0,0,0,0,0,0,0,0,0,0,0,
415,-14.21,15.804,-26.622,-15.325,-26.071,-15.411,6.9346,-1.0764,-1.361,-2.5228,-14.996,-8.5766,2.0897,-13.829,-5.6685,-11.123,0,0,0,0,0,0,0,0,0,0,0,0,0,0,0,0,
416,-46.254,5.4776,-55.915,-13.411,-54.21,-29.553,-34.27,-24.26,-50.553,-41.68,-28.184,-9.7401,16.949,-30.003,-11.86,-18.237,0,0,0,0,0,0,0,0,0,0,0,0,0,0,0,0,
417,-40.301,27.15,-48.212,1.4982,-37.351,-17.698,-39.477,-23.447,-16.747,-21.838,-20.372,-1.9064,31.805,-22.178,-9.0527,-9.3536,0,0,0,0,0,0,0,0,0,0,0,0,0,0,0,0,
418,-35.348,37.823,-24.508,26.407,-21.491,-24.841,-19.687,-14.635,-10.94,-11.998,-4.5619,2.9272,31.661,-6.354,0.75393,6.5291,0,0,0,0,0,0,0,0,0,0,0,0,0,0,0,0,
419,-35.394,37.496,-17.805,54.318,-12.632,-24.987,-10.896,0.17823,-8.134,-15.158,8.249,-7.2374,12.519,-11.529,5.5619,12.413,0,0,0,0,0,0,0,0,0,0,0,0,0,0,0,0,
420,-42.442,30.168,-21.105,15.226,-9.7744,-1.1326,-32.107,-4.01,-31.328,-15.319,26.06,4.597,20.377,0.29455,11.372,13.299,0,0,0,0,0,0,0,0,0,0,0,0,0,0,0,0,
421,-17.49,30.842,2.5957,-22.867,8.0831,-5.2757,-2.3156,6.8005,12.478,4.5216,23.871,12.431,25.234,12.119,26.182,20.184,0,0,0,0,0,0,0,0,0,0,0,0,0,0,0,0,
422,-26.539,16.515,-4.7047,-21.957,3.9401,5.5786,11.475,1.6106,2.283,-8.6389,20.682,10.265,13.091,14.945,37.993,19.069,0,0,0,0,0,0,0,0,0,0,0,0,0,0,0,0,
423,-17.588,40.189,8.9941,22.953,15.797,22.434,16.266,13.42,14.088,-5.8,23.495,30.1,22.947,22.773,40.804,14.952,0,0,0,0,0,0,0,0,0,0,0,0,0,0,0,0,
424,-0.6368,68.863,21.692,47.858,27.653,14.289,18.056,29.228,-3.1079,5.0373,19.308,41.934,45.804,23.601,32.617,10.834,0,0,0,0,0,0,0,0,0,0,0,0,0,0,0,0,
425,-4.6862,75.536,20.388,3.7625,29.508,-16.856,16.846,37.035,2.6961,9.8728,18.12,33.767,35.66,22.427,28.43,9.7158,0,0,0,0,0,0,0,0,0,0,0,0,0,0,0,0,
426,-14.738,41.21,19.081,-18.333,25.361,-3.0018,10.635,28.84,16.499,7.7078,16.93,38.599,16.515,31.253,28.243,10.598,0,0,0,0,0,0,0,0,0,0,0,0,0,0,0,0,
427,-11.79,35.884,13.774,2.5733,19.213,10.851,20.424,23.646,23.3,4.5415,7.7413,17.433,-6.629,14.081,20.058,1.4804,0,0,0,0,0,0,0,0,0,0,0,0,0,0,0,0,
428,12.16,60.558,22.467,-45.522,33.066,20.706,26.213,18.451,15.103,20.375,-4.4462,20.268,2.2282,17.909,9.8727,-3.6377,0,0,0,0,0,0,0,0,0,0,0,0,0,0,0,0,
429,19.109,52.232,27.159,-43.619,30.919,-3.4382,30.002,24.256,36.906,25.208,-14.636,11.101,1.0842,12.736,3.6877,-3.7572,0,0,0,0,0,0,0,0,0,0,0,0,0,0,0,0,
430,-7.9413,47.907,13.852,-1.7126,19.772,-13.583,14.79,9.0615,25.709,14.041,-24.824,-9.0644,-9.0589,-8.4361,-8.4968,-17.878,0,0,0,0,0,0,0,0,0,0,0,0,0,0,0,0,
431,8.0075,67.584,26.544,42.192,34.626,-4.7291,4.5769,4.8666,29.512,18.874,-14.013,9.7695,12.797,6.3918,-6.6815,-23.0,0,0,0,0,0,0,0,0,0,0,0,0,0,0,0,0,
432,7.9551,56.26,32.234,19.095,34.478,3.1244,28.362,24.67,37.313,20.705,-0.2028,8.6027,13.653,19.22,8.1345,-7.1224,0,0,0,0,0,0,0,0,0,0,0,0,0,0,0,0,
433,5.9028,48.934,6.9235,-0.00197,13.328,-1.0234,18.148,2.4737,30.115,22.537,-11.392,-6.5644,7.5086,3.0481,9.9516,-3.2453,0,0,0,0,0,0,0,0,0,0,0,0,0,0,0,0,
434,-24.151,50.608,-4.3898,8.8994,-3.8225,-30.17,-3.0663,-9.7254,-7.0842,1.3663,4.4186,3.2684,13.365,11.877,6.7691,-10.369,0,0,0,0,0,0,0,0,0,0,0,0,0,0,0,0,
435,-6.2048,70.284,23.297,25.8,26.026,7.686,22.719,23.074,14.717,1.1955,15.23,8.1019,1.2208,26.707,10.587,-28.493,0,0,0,0,0,0,0,0,0,0,0,0,0,0,0,0,
436,-5.2577,62.96,12.983,-13.299,16.875,20.541,22.506,19.875,10.518,14.024,-7.9574,-16.065,-20.924,7.5369,7.4067,-55.617,0,0,0,0,0,0,0,0,0,0,0,0,0,0,0,0,
437,-19.311,53.637,9.6697,-26.4,9.7244,12.394,0.29404,-4.3262,-16.682,-1.1467,-12.144,1.768,-8.0688,14.368,-0.77268,-54.741,0,0,0,0,0,0,0,0,0,0,0,0,0,0,0,0,
438,4.6371,54.315,15.356,22.501,18.574,7.2499,16.083,7.4732,3.1208,11.682,-4.3289,16.602,9.7861,14.202,-4.9505,-25.865,0,0,0,0,0,0,0,0,0,0,0,0,0,0,0,0,
439,-0.4151,58.996,14.044,39.404,17.424,-16.894,13.872,18.274,9.9239,11.512,5.4862,33.438,22.643,18.036,9.873,13.012,0,0,0,0,0,0,0,0,0,0,0,0,0,0,0,0,
440,-25.468,57.675,17.729,-18.695,17.272,-20.039,5.66,22.075,2.7251,14.339,10.302,32.274,8.5006,21.871,22.698,20.889,0,0,0,0,0,0,0,0,0,0,0,0,0,0,0,0,
441,-42.522,43.355,10.413,-27.795,18.12,2.8176,10.448,23.873,-42.475,-16.835,13.117,27.111,1.3582,29.706,22.523,0.76566,0,0,0,0,0,0,0,0,0,0,0,0,0,0,0,0,
442,24.425,38.037,23.097,-18.896,24.967,3.674,26.237,11.672,0.3257,-3.0091,-6.0674,4.9462,-8.7851,12.542,10.349,-17.358,0,0,0,0,0,0,0,0,0,0,0,0,0,0,0,0,
443,32.37,55.719,33.781,19.001,37.815,15.53,16.025,7.4713,25.127,29.816,-1.2502,23.783,19.072,18.38,10.178,-4.4821,0,0,0,0,0,0,0,0,0,0,0,0,0,0,0,0,
444,45.318,65.402,36.467,5.8993,41.665,33.388,40.813,35.271,48.931,37.644,18.568,38.62,26.929,42.219,25.007,22.394,0,0,0,0,0,0,0,0,0,0,0,0,0,0,0,0,
445,37.266,53.084,27.153,-6.2014,22.514,18.247,46.601,27.071,47.734,20.471,12.386,18.457,2.787,45.058,25.838,17.27,0,0,0,0,0,0,0,0,0,0,0,0,0,0,0,0,
446,24.212,54.768,29.836,28.696,32.361,-2.8969,48.39,24.869,9.5355,14.296,26.206,20.293,11.644,46.897,20.67,4.1467,0,0,0,0,0,0,0,0,0,0,0,0,0,0,0,0,
447,10.157,53.452,31.518,-2.4034,30.207,-3.0387,40.179,26.667,4.3352,5.1196,24.027,25.13,28.501,29.737,16.502,8.0229,0,0,0,0,0,0,0,0,0,0,0,0,0,0,0,0,
448,16.101,47.136,32.198,-2.5065,28.051,-3.1804,16.966,24.463,16.134,6.9412,5.8461,26.967,28.358,24.578,17.334,18.898,0,0,0,0,0,0,0,0,0,0,0,0,0,0,0,0,
449,-3.9551,14.821,17.877,-0.61192,23.893,-14.322,12.754,27.259,2.9328,0.76255,-10.335,27.803,17.214,19.419,10.167,24.772,0,0,0,0,0,0,0,0,0,0,0,0,0,0,0,0,
450,-4.0119,24.505,36.555,2.2839,37.736,-30.465,21.543,47.054,9.7312,9.5834,-8.5175,33.64,17.07,22.26,2.9985,15.645,0,0,0,0,0,0,0,0,0,0,0,0,0,0,0,0,
451,6.9302,49.189,39.233,6.1784,41.578,-27.607,23.331,37.848,19.528,19.404,8.3008,28.478,16.927,28.102,7.8316,2.5178,0,0,0,0,0,0,0,0,0,0,0,0,0,0,0,0,
452,16.874,47.874,35.911,43.072,42.42,16.252,23.12,32.643,14.327,16.224,16.12,28.316,15.784,34.946,22.665,10.391,0,0,0,0,0,0,0,0,0,0,0,0,0,0,0,0,
453,45.817,55.561,53.589,32.966,51.262,34.111,32.909,38.437,54.125,37.043,41.939,35.152,31.64,51.789,45.5,41.265,0,0,0,0,0,0,0,0,0,0,0,0,0,0,0,0,
454,21.761,42.249,27.268,-29.14,29.105,14.968,34.698,23.23,36.925,25.863,10.759,-0.01154,-3.5041,20.632,37.334,38.137,0,0,0,0,0,0,0,0,0,0,0,0,0,0,0,0,
455,15.704,36.937,20.946,-24.246,24.947,-15.176,7.4855,6.0234,38.724,27.682,-22.423,2.8239,0.35186,9.4745,15.168,18.008,0,0,0,0,0,0,0,0,0,0,0,0,0,0,0,0,
456,16.646,23.626,22.622,-16.353,20.788,-9.3208,0.27097,-0.18503,56.521,3.4998,-9.6051,-0.34174,-5.7928,5.3159,7.0017,11.877,0,0,0,0,0,0,0,0,0,0,0,0,0,0,0,0,
457,13.587,28.315,17.299,-11.463,19.629,0.53591,3.0569,-0.39357,33.32,8.3175,-7.7868,6.4924,1.0617,-0.84135,10.836,20.746,0,0,0,0,0,0,0,0,0,0,0,0,0,0,0,0,
458,4.5278,25.006,19.977,-1.574,17.471,14.392,-2.1564,4.3978,32.119,13.136,-12.968,9.3258,7.9149,-7.9984,9.6704,30.614,0,0,0,0,0,0,0,0,0,0,0,0,0,0,0,0,
459,15.47,27.698,24.656,24.316,24.314,17.25,5.6316,3.1895,49.919,21.956,-9.1505,5.1599,2.7682,-1.1547,13.506,41.481,0,0,0,0,0,0,0,0,0,0,0,0,0,0,0,0,
460,20.413,18.391,20.335,52.205,24.157,-30.891,7.4207,2.9818,59.72,32.775,2.6683,18.995,16.622,6.6909,33.342,65.349,0,0,0,0,0,0,0,0,0,0,0,0,0,0,0,0,
461,19.357,14.086,33.014,-8.9041,31.001,14.968,8.2117,15.775,67.522,30.596,35.489,42.833,38.478,27.539,63.179,100.22,0,0,0,0,0,0,0,0,0,0,0,0,0,0,0,0,
462,25.3,-14.218,13.694,-54.013,11.845,20.83,12.005,20.569,52.323,14.415,28.311,19.671,24.336,5.3882,68.02,108.09,0,0,0,0,0,0,0,0,0,0,0,0,0,0,0,0,
463,-0.75443,-42.52,-17.625,-24.121,-19.309,-23.306,-5.1999,-9.6354,-3.8727,-20.765,3.1364,16.513,27.195,-4.7584,50.864,86.962,0,0,0,0,0,0,0,0,0,0,0,0,0,0,0,0,
464,-4.8085,-31.82,-11.943,-3.2285,-12.464,-18.445,-17.404,-6.8392,-3.0689,-19.944,-1.0368,30.355,39.055,5.0963,36.71,67.836,0,0,0,0,0,0,0,0,0,0,0,0,0,0,0,0,
465,13.136,-14.119,11.737,19.663,14.381,-6.5834,3.3895,22.955,33.733,17.876,6.7892,26.198,34.915,8.9504,30.555,58.708,0,0,0,0,0,0,0,0,0,0,0,0,0,0,0,0,
466,-5.9205,-29.417,4.417,12.552,2.2245,-2.7225,5.1825,14.748,-2.4647,-5.3052,11.615,35.039,30.774,25.804,36.4,65.578,0,0,0,0,0,0,0,0,0,0,0,0,0,0,0,0,
467,-15.979,-14.714,-1.9035,26.441,-1.9324,-8.8621,9.9737,20.54,-7.663,-22.487,21.438,35.878,23.632,37.656,44.242,77.446,0,0,0,0,0,0,0,0,0,0,0,0,0,0,0,0,
468,-16.038,-6.0111,5.775,33.33,9.9102,5.9965,17.764,26.33,-7.8631,2.3299,27.26,33.717,38.489,38.507,43.084,94.312,0,0,0,0,0,0,0,0,0,0,0,0,0,0,0,0,
469,-15.097,-2.3072,8.4527,13.218,4.7517,-2.146,6.5541,15.12,-7.0621,14.146,-16.919,9.5542,19.345,11.357,22.926,77.177,0,0,0,0,0,0,0,0,0,0,0,0,0,0,0,0,
470,-7.1565,0.39787,13.131,22.103,15.593,-27.287,-7.6549,9.9104,8.7392,11.962,-12.097,8.3906,5.1994,16.208,4.7686,48.042,0,0,0,0,0,0,0,0,0,0,0,0,0,0,0,0,
471,3.7847,11.105,28.811,22.991,28.437,-7.4262,22.138,22.701,23.541,13.78,16.727,20.229,7.0547,43.063,12.611,46.906,0,0,0,0,0,0,0,0,0,0,0,0,0,0,0,0,
472,-20.274,14.814,15.492,-5.1225,12.281,5.4332,23.931,24.492,1.3445,-1.4011,-5.4481,9.0681,-11.09,26.92,16.455,48.769,0,0,0,0,0,0,0,0,0,0,0,0,0,0,0,0,
473,-20.332,10.523,3.1715,-24.238,8.1234,-24.708,9.7248,14.283,2.1473,-4.5832,-14.623,3.9078,-15.234,12.777,4.301,37.633,0,0,0,0,0,0,0,0,0,0,0,0,0,0,0,0,
474,-15.39,-8.7695,3.8505,-14.352,3.9653,-21.844,0.51864,19.074,-4.0493,-0.7671,13.204,7.7491,-7.377,12.637,-4.8507,34.498,0,0,0,0,0,0,0,0,0,0,0,0,0,0,0,0,
475,-29.448,-12.061,-17.47,21.535,-16.193,-15.98,-15.685,2.8656,-26.246,-24.95,-5.9664,-2.4089,-3.5198,5.4983,-7.0002,38.364,0,0,0,0,0,0,0,0,0,0,0,0,0,0,0,0,
476,-25.508,-8.3499,-24.79,15.421,-20.351,-11.118,-8.8875,-2.3417,-40.443,-44.133,-5.1373,2.4341,-7.6618,5.3611,-3.1488,42.231,0,0,0,0,0,0,0,0,0,0,0,0,0,0,0,0,
477,-33.566,-13.638,-28.109,6.306,-31.508,-42.255,-16.089,-5.5482,-42.638,-55.316,-22.308,-4.7209,-10.802,-10.774,-4.2969,38.097,0,0,0,0,0,0,0,0,0,0,0,0,0,0,0,0,
478,-15.625,12.073,-11.428,15.191,-10.666,-6.3905,-17.291,3.2445,-21.835,-37.5,-1.478,-15.876,-11.942,-0.90889,-4.4447,25.963,0,0,0,0,0,0,0,0,0,0,0,0,0,0,0,0,
479,-15.684,-10.215,-28.747,-24.924,-29.823,13.473,-14.493,-16.964,-42.031,-51.684,9.3526,-37.03,-27.081,-11.042,-5.5912,6.8303,0,0,0,0,0,0,0,0,0,0,0,0,0,0,0,0,
480,-5.7425,-39.501,-44.066,-28.037,-47.982,17.337,-28.694,-40.171,-33.228,-51.868,-13.816,-46.185,-27.219,-26.175,-16.735,-5.3021,0,0,0,0,0,0,0,0,0,0,0,0,0,0,0,0,
481,0.19819,-59.787,-51.386,-30.154,-55.14,-18.799,-33.895,-47.379,-34.423,-56.052,-46.985,-56.339,-31.358,-39.308,-35.878,-11.435,0,0,0,0,0,0,0,0,0,0,0,0,0,0,0,0,
482,-11.86,-27.069,-36.703,-5.2708,-44.297,-58.934,-44.095,-44.585,-25.618,-46.235,-32.152,-48.492,-31.496,-37.439,-46.021,-11.569,0,0,0,0,0,0,0,0,0,0,0,0,0,0,0,0,
483,-11.919,2.6494,-21.02,19.615,-28.454,-1.0674,-51.296,-28.793,-6.8147,-27.419,-39.317,-53.644,-48.634,-50.569,-51.163,-15.703,0,0,0,0,0,0,0,0,0,0,0,0,0,0,0,0,
484,15.021,9.3697,-0.33832,8.5004,-2.6121,26.797,-32.498,-27.001,8.9905,2.3974,4.5163,-27.798,-29.773,-5.6994,-28.306,-1.839,0,0,0,0,0,0,0,0,0,0,0,0,0,0,0,0,
485,47.961,12.09,25.343,-18.616,14.229,56.662,10.299,-14.209,28.794,12.214,55.349,4.0484,4.0881,36.17,19.551,30.025,0,0,0,0,0,0,0,0,0,0,0,0,0,0,0,0,
486,87.9,48.81,63.025,30.27,55.069,112.53,51.097,22.583,61.597,46.029,112.18,30.896,29.951,79.041,71.41,67.889,0,0,0,0,0,0,0,0,0,0,0,0,0,0,0,0,
487,93.841,50.531,69.707,34.155,58.911,115.39,76.898,35.376,87.403,48.845,111.02,21.745,28.814,79.914,100.27,82.754,0,0,0,0,0,0,0,0,0,0,0,0,0,0,0,0,
488,61.783,24.253,51.391,17.039,33.753,77.26,55.701,26.169,61.21,36.662,52.853,5.5948,5.678,36.788,76.133,63.621,0,0,0,0,0,0,0,0,0,0,0,0,0,0,0,0,
489,9.7232,-0.02369,17.075,-6.0778,7.5954,4.1284,3.5035,3.9614,27.017,21.478,-17.309,-14.555,-19.458,-12.335,9.996,22.488,0,0,0,0,0,0,0,0,0,0,0,0,0,0,0,0,
490,-7.3362,-12.299,12.759,-26.197,1.4366,5.996,-23.693,-17.245,28.823,5.2935,-29.469,-14.704,-14.594,-10.458,-29.14,4.3533,0,0,0,0,0,0,0,0,0,0,0,0,0,0,0,0,
491,-3.3954,-7.5732,5.4428,12.686,-6.7226,-16.136,-11.89,-20.451,9.6302,2.1088,-24.63,-13.852,-7.7291,-9.5795,-27.274,10.219,0,0,0,0,0,0,0,0,0,0,0,0,0,0,0,0,
492,-17.455,-46.845,-35.873,-31.429,-43.881,-37.268,-22.089,-25.657,-13.564,-31.076,-40.792,-35.999,-21.864,-46.701,-26.408,1.0846,0,0,0,0,0,0,0,0,0,0,0,0,0,0,0,0,
493,-26.516,-67.116,-45.188,-65.546,-60.04,-57.4,-59.285,-51.863,-13.758,-50.262,-53.954,-71.147,-63.998,-68.822,-48.542,-45.051,0,0,0,0,0,0,0,0,0,0,0,0,0,0,0,0,
494,-26.575,-37.385,-34.502,-50.663,-44.199,-42.53,-59.48,-65.069,-22.951,-28.447,-59.114,-73.293,-59.132,-66.941,-62.676,-76.187,0,0,0,0,0,0,0,0,0,0,0,0,0,0,0,0,
495,-22.635,-19.653,-11.816,-13.778,-21.357,-33.659,-52.674,-54.274,-9.1428,-12.63,-39.275,-45.439,-24.265,-51.061,-51.809,-57.323,0,0,0,0,0,0,0,0,0,0,0,0,0,0,0,0,
496,-7.6956,-14.919,15.87,-3.8941,2.483,0.20796,-35.87,-29.479,17.664,11.184,-18.436,-28.585,-11.398,-18.179,-20.942,-23.457,0,0,0,0,0,0,0,0,0,0,0,0,0,0,0,0,
497,14.244,-18.185,5.5567,-40.012,-1.6756,-5.9238,-14.064,-27.683,15.471,7.9997,-19.595,-33.73,-16.531,-5.2975,-8.074,-8.5929,0,0,0,0,0,0,0,0,0,0,0,0,0,0,0,0,
498,3.1842,-28.447,2.2452,-30.128,-9.8328,23.947,-0.25793,-27.887,4.2811,-5.1842,10.247,-24.872,-24.661,17.587,-8.2062,-19.729,0,0,0,0,0,0,0,0,0,0,0,0,0,0,0,0,
499,11.124,-35.708,9.9341,30.756,-3.9902,18.819,24.548,-24.09,3.0893,-14.368,17.089,-32.013,-45.792,30.472,-10.338,-44.864,0,0,0,0,0,0,0,0,0,0,0,0,0,0,0,0,
500,20.063,-33.969,18.622,-30.361,6.8516,-4.3126,37.354,-22.292,20.897,9.4471,1.9294,-36.156,-32.924,20.356,-14.468,-56.0,0,0,0,0,0,0,0,0,0,0,0,0,0,0,0,0,
501,-23.998,-47.227,4.3109,-96.478,-16.307,-27.441,7.1593,-38.494,-5.2948,5.2638,-22.228,-46.298,-35.055,-8.7585,-27.596,-51.135,0,0,0,0,0,0,0,0,0,0,0,0,0,0,0,0,
502,-26.058,-37.483,2.001,-39.595,-9.4645,-22.568,-18.033,-41.697,-30.485,-10.919,-3.3839,-27.439,-25.185,1.1293,-24.724,-29.269,0,0,0,0,0,0,0,0,0,0,0,0,0,0,0,0,
503,19.881,-19.738,25.692,-12.713,11.378,1.3018,13.776,-10.9,10.326,2.8974,24.462,-18.581,-25.316,18.018,-6.8499,-9.4037,0,0,0,0,0,0,0,0,0,0,0,0,0,0,0,0,
504,-9.1798,-39.992,4.3852,-36.831,-16.777,6.174,6.5873,-25.102,-32.862,-28.285,-7.6909,-28.723,-26.447,0.90974,-5.9743,-18.538,0,0,0,0,0,0,0,0,0,0,0,0,0,0,0,0,
505,-0.23933,-49.244,-1.9202,9.0531,-10.932,4.0471,6.3978,-28.304,-33.05,-32.466,1.1561,-8.864,-8.5772,13.802,-2.0977,-21.672,0,0,0,0,0,0,0,0,0,0,0,0,0,0,0,0,
506,18.701,-27.496,18.774,20.935,0.91315,13.918,21.21,-6.5054,6.7637,-13.648,15.002,0.99528,8.2921,20.695,11.779,-8.8055,0,0,0,0,0,0,0,0,0,0,0,0,0,0,0,0,
507,-1.3588,-46.745,-0.53013,-59.182,-20.242,-1.2071,5.0216,-13.706,-24.423,-33.828,-4.1508,-19.144,-0.83633,-9.411,7.6563,-4.9386,0,0,0,0,0,0,0,0,0,0,0,0,0,0,0,0,
508,-9.4182,-57.993,-17.834,-55.3,-34.396,-9.3323,-14.166,-28.906,-45.609,-45.008,-23.302,-41.281,-35.963,-34.515,-21.466,-26.071,0,0,0,0,0,0,0,0,0,0,0,0,0,0,0,0,
509,-10.478,-49.24,-17.137,-51.419,-40.55,-15.456,-33.352,-59.106,-33.794,-38.188,-5.4543,-43.419,-38.091,-22.62,-46.588,-49.203,0,0,0,0,0,0,0,0,0,0,0,0,0,0,0,0,
510,18.462,-37.487,0.56022,-34.535,-16.705,19.419,-14.539,-49.306,-14.979,-19.369,9.3937,-45.555,-54.217,-4.7244,-40.709,-59.335,0,0,0,0,0,0,0,0,0,0,0,0,0,0,0,0,
511,31.402,-4.7329,19.256,-3.651,2.1395,-1.7076,4.2729,-28.505,29.836,-0.54982,0.24252,-42.691,-47.343,-3.8276,-21.83,-61.468,0,0,0,0,0,0,0,0,0,0,0,0,0,0,0,0,
512,33.341,6.0216,21.953,-14.77,-1.017,10.167,-0.91391,-21.704,24.65,2.2675,-18.908,-64.828,-57.47,-26.931,-20.951,-67.6,0,0,0,0,0,0,0,0,0,0,0,0,0,0,0,0,
513,50.28,-7.2209,14.651,-9.8869,-5.1718,5.0447,1.901,-41.901,-1.5355,9.0858,-0.05734,-62.963,-61.596,-17.031,-22.07,-65.732,0,0,0,0,0,0,0,0,0,0,0,0,0,0,0,0,
514,33.22,18.538,14.351,10.996,-9.3257,17.921,1.7178,-42.098,-5.7211,9.9051,6.7942,-59.096,-62.721,-14.13,-24.188,-61.863,0,0,0,0,0,0,0,0,0,0,0,0,0,0,0,0,
515,25.161,58.299,26.052,23.88,4.5207,19.799,-5.4638,-33.293,24.094,26.724,-23.354,-50.23,-57.846,-18.229,-26.305,-55.996,0,0,0,0,0,0,0,0,0,0,0,0,0,0,0,0,
516,31.103,45.062,37.754,-8.2343,20.368,14.68,17.355,-13.488,46.911,20.543,-9.4994,-28.362,-34.97,-1.3244,-12.422,-40.128,0,0,0,0,0,0,0,0,0,0,0,0,0,0,0,0,
517,43.045,54.826,60.457,1.6517,38.215,11.559,22.175,10.317,34.728,35.362,21.357,11.507,3.908,27.582,22.463,2.7399,0,0,0,0,0,0,0,0,0,0,0,0,0,0,0,0,
518,51.987,56.592,56.162,4.5354,37.063,26.441,36.996,26.122,34.546,48.182,28.214,8.3763,-8.214,27.49,49.348,39.608,0,0,0,0,0,0,0,0,0,0,0,0,0,0,0,0,
519,38.929,40.359,39.867,-3.5837,21.911,22.322,23.816,2.9253,26.364,26.002,21.07,-11.757,-22.338,5.3967,39.235,21.475,0,0,0,0,0,0,0,0,0,0,0,0,0,0,0,0,
520,62.871,43.128,59.572,5.2984,38.759,34.204,19.636,2.7298,65.182,44.823,40.927,-11.89,-25.462,7.3033,24.122,-10.657,0,0,0,0,0,0,0,0,0,0,0,0,0,0,0,0,
521,84.813,70.899,82.278,1.1837,62.607,38.085,43.457,17.535,99.001,79.644,36.784,-10.022,-16.586,8.2108,23.009,-26.789,0,0,0,0,0,0,0,0,0,0,0,0,0,0,0,0,
522,62.754,60.671,86.985,31.068,62.455,39.965,41.278,24.341,89.82,75.465,34.641,1.8482,-4.7081,7.1196,24.895,-17.921,0,0,0,0,0,0,0,0,0,0,0,0,0,0,0,0,
523,83.696,98.443,102.69,75.951,80.303,69.846,49.101,45.148,57.639,83.285,48.499,36.719,14.171,35.03,29.783,4.9462,0,0,0,0,0,0,0,0,0,0,0,0,0,0,0,0,
524,96.637,101.21,102.4,31.833,83.152,67.729,79.925,65.956,89.46,82.107,51.357,59.591,21.05,59.943,41.672,23.814,0,0,0,0,0,0,0,0,0,0,0,0,0,0,0,0,
525,78.578,77.988,92.112,-2.2849,65.0,35.613,87.749,63.764,91.281,67.927,60.215,60.463,21.929,68.856,56.561,28.681,0,0,0,0,0,0,0,0,0,0,0,0,0,0,0,0,
526,76.519,82.763,79.823,-0.40314,58.849,66.495,69.575,39.571,66.102,75.749,67.074,54.336,29.808,73.77,66.451,25.55,0,0,0,0,0,0,0,0,0,0,0,0,0,0,0,0,
527,88.461,98.54,95.534,27.48,72.698,82.379,82.4,46.379,80.923,94.571,83.935,58.21,34.688,86.687,72.341,33.419,0,0,0,0,0,0,0,0,0,0,0,0,0,0,0,0,
528,68.404,78.319,76.247,4.3648,48.548,46.263,79.227,42.189,68.747,67.395,54.797,31.085,18.569,51.604,51.232,19.288,0,0,0,0,0,0,0,0,0,0,0,0,0,0,0,0,
529,40.346,63.098,46.961,9.2464,28.397,29.147,35.054,19.998,47.574,41.22,20.659,25.96,27.451,24.521,22.124,0.1566,0,0,0,0,0,0,0,0,0,0,0,0,0,0,0,0,
530,60.288,42.879,59.675,33.129,38.247,63.032,39.883,28.807,60.399,45.046,47.521,50.836,46.333,47.439,24.017,16.025,0,0,0,0,0,0,0,0,0,0,0,0,0,0,0,0,
531,13.23,60.661,31.39,26.012,8.0973,15.917,28.713,25.618,10.223,37.873,7.3835,23.711,28.215,7.3573,26.91,35.893,0,0,0,0,0,0,0,0,0,0,0,0,0,0,0,0,
532,-8.828,65.446,18.107,1.8942,6.9487,-3.1989,-18.456,7.4298,8.0498,48.7,10.246,38.588,39.097,17.275,32.803,58.761,0,0,0,0,0,0,0,0,0,0,0,0,0,0,0,0,
533,39.114,73.231,45.826,7.7771,26.8,3.6865,14.375,27.243,53.878,46.53,39.11,51.464,50.98,35.194,36.697,63.628,0,0,0,0,0,0,0,0,0,0,0,0,0,0,0,0,
534,31.058,84.018,52.545,22.66,41.652,16.572,12.205,42.056,49.708,64.36,20.974,35.34,42.863,15.113,24.59,44.495,0,0,0,0,0,0,0,0,0,0,0,0,0,0,0,0,
535,28.001,87.806,64.264,17.542,53.504,14.456,21.037,36.868,51.539,74.19,23.837,27.216,24.745,26.033,10.483,16.361,0,0,0,0,0,0,0,0,0,0,0,0,0,0,0,0,
536,20.944,89.595,61.983,2.4247,48.354,-7.6597,21.868,31.68,66.368,64.021,7.6991,21.091,16.628,18.952,6.3748,-4.7732,0,0,0,0,0,0,0,0,0,0,0,0,0,0,0,0,
537,16.887,88.385,50.704,-0.69175,46.205,-16.772,7.6993,21.493,62.199,64.851,3.5614,33.967,33.51,18.872,17.266,5.0918,0,0,0,0,0,0,0,0,0,0,0,0,0,0,0,0,
538,-10.169,65.175,26.426,-1.8102,19.057,1.116,3.5324,11.306,22.03,44.682,4.4247,22.845,23.394,8.7946,22.158,22.957,0,0,0,0,0,0,0,0,0,0,0,0,0,0,0,0,
539,-5.2267,53.966,28.148,48.07,23.908,-10.999,1.367,11.121,14.861,44.511,13.289,42.724,36.278,17.719,25.051,45.822,0,0,0,0,0,0,0,0,0,0,0,0,0,0,0,0,
540,7.7154,42.759,35.871,17.955,33.759,-47.112,17.203,34.937,33.692,50.341,7.1538,45.605,42.162,15.644,17.945,50.688,0,0,0,0,0,0,0,0,0,0,0,0,0,0,0,0,
541,-10.343,44.555,27.596,-16.158,20.611,-24.224,-4.9603,20.754,26.523,31.172,-8.9796,41.486,48.048,8.5712,14.84,50.555,0,0,0,0,0,0,0,0,0,0,0,0,0,0,0,0,
542,-20.4,44.351,24.321,10.726,24.463,-23.336,-16.123,8.5708,25.355,30.004,-4.1124,21.366,17.932,4.4989,12.737,28.422,0,0,0,0,0,0,0,0,0,0,0,0,0,0,0,0,
543,-26.458,52.149,23.047,20.606,25.314,-37.444,-19.286,11.386,18.187,40.836,2.7568,8.2472,-7.1824,-5.5716,4.6346,-13.712,0,0,0,0,0,0,0,0,0,0,0,0,0,0,0,0,
544,-31.516,35.947,7.7743,-14.514,5.1659,-44.556,-33.447,2.2006,-12.981,43.667,-20.375,9.1278,0.70337,-14.641,-8.4673,-37.846,0,0,0,0,0,0,0,0,0,0,0,0,0,0,0,0,
545,-8.5731,28.748,10.503,2.3704,17.019,-25.667,-21.608,7.0168,3.8527,30.499,-25.506,10.01,1.5898,-9.7107,-17.569,-40.98,0,0,0,0,0,0,0,0,0,0,0,0,0,0,0,0,
546,-10.629,43.552,23.235,8.2562,22.874,-16.776,-11.768,13.836,25.688,38.333,-38.637,1.8929,1.477,-18.779,-24.671,-30.114,0,0,0,0,0,0,0,0,0,0,0,0,0,0,0,0,
547,-5.6844,66.359,20.969,29.14,22.731,-61.886,-22.926,5.6562,20.524,39.168,-32.765,2.7776,-1.6342,-15.845,-24.772,-9.2479,0,0,0,0,0,0,0,0,0,0,0,0,0,0,0,0,
548,-6.739,64.169,20.706,12.026,27.589,-23.993,-17.083,9.4795,13.361,36.005,-2.8939,5.6639,1.2552,-4.9102,-3.8719,15.619,0,0,0,0,0,0,0,0,0,0,0,0,0,0,0,0,
549,-6.7927,47.981,27.444,-20.088,27.448,-17.099,-12.239,6.3046,1.1995,35.842,-5.0224,-2.4492,-12.855,-7.9748,12.028,24.487,0,0,0,0,0,0,0,0,0,0,0,0,0,0,0,0,
550,-2.8455,14.793,6.1844,18.8,10.309,-20.203,-13.393,-4.8694,-1.9617,23.68,-16.15,-18.562,-39.966,-19.038,10.929,21.354,0,0,0,0,0,0,0,0,0,0,0,0,0,0,0,0,
551,11.103,10.607,5.9262,-4.3097,8.1697,-15.306,-8.5457,-10.042,13.879,26.518,-13.275,-3.6732,-14.076,-13.098,8.8299,28.222,0,0,0,0,0,0,0,0,0,0,0,0,0,0,0,0,
552,-14.949,19.421,-1.3315,-36.421,-0.96999,-45.409,-18.698,-11.215,-22.28,12.357,-26.401,-1.7841,-6.1857,-19.158,1.7319,37.09,0,0,0,0,0,0,0,0,0,0,0,0,0,0,0,0,
553,-7.0016,22.236,0.41131,9.4644,4.8905,-12.513,-29.848,-5.3869,0.56134,19.196,-27.525,-9.8939,-17.294,-21.216,-6.3653,23.959,0,0,0,0,0,0,0,0,0,0,0,0,0,0,0,0,
554,2.9467,-2.9465,0.15521,-12.65,-2.2492,3.3867,-20.998,-9.5588,0.40314,16.036,-13.647,-10.002,-10.401,-8.2719,1.5386,4.8288,0,0,0,0,0,0,0,0,0,0,0,0,0,0,0,0,
555,-17.105,-21.128,-10.1,-25.764,-11.389,-30.713,-20.147,-27.73,-11.755,11.876,-29.77,-37.108,-29.508,-31.327,2.4431,-13.301,0,0,0,0,0,0,0,0,0,0,0,0,0,0,0,0,
556,-20.157,-17.308,-21.353,-39.876,-18.527,-33.814,-45.295,-46.9,-6.9132,14.716,-27.893,-59.214,-44.614,-44.381,-11.652,-42.429,0,0,0,0,0,0,0,0,0,0,0,0,0,0,0,0,
557,1.792,-13.486,-15.604,-49.985,-17.664,-22.915,-56.443,-44.069,-8.0693,12.558,-39.016,-45.32,-41.719,-46.435,-25.746,-55.558,0,0,0,0,0,0,0,0,0,0,0,0,0,0,0,0,
558,7.7418,-32.662,-21.851,-54.095,-19.798,-35.016,-46.588,-39.237,15.777,7.4017,-46.136,-61.425,-57.824,-48.486,-32.84,-56.687,0,0,0,0,0,0,0,0,0,0,0,0,0,0,0,0,
559,8.692,-22.837,-22.097,-32.205,-19.932,-26.115,-42.731,-62.403,14.624,21.246,-24.255,-44.529,-45.928,-27.536,-28.932,-49.814,0,0,0,0,0,0,0,0,0,0,0,0,0,0,0,0,
560,21.643,0.98986,10.66,4.6835,8.9359,5.7901,-21.873,-21.568,24.473,43.091,-18.371,-9.6319,-19.031,-7.583,-23.023,-31.941,0,0,0,0,0,0,0,0,0,0,0,0,0,0,0,0,
561,22.594,6.8183,21.417,-28.428,24.803,1.6926,-6.0132,6.2672,38.321,55.937,-27.488,-16.735,-26.135,-10.631,-27.112,-32.067,0,0,0,0,0,0,0,0,0,0,0,0,0,0,0,0,
562,10.544,7.6472,12.174,0.4614,10.67,14.595,-9.155,-4.8969,14.168,44.783,-17.605,-2.8376,-3.238,-6.6776,-27.202,-17.194,0,0,0,0,0,0,0,0,0,0,0,0,0,0,0,0,
563,10.496,-6.5207,-8.0652,20.354,-9.4607,-52.498,-24.296,-10.06,11.017,26.629,-47.72,-5.9374,-1.3392,-27.722,-29.291,-2.3192,0,0,0,0,0,0,0,0,0,0,0,0,0,0,0,0,
564,-2.5496,-26.686,-24.301,-53.753,-18.589,-51.589,-47.433,-25.218,-0.13027,23.478,-29.831,-2.0342,-0.43811,-19.762,-23.377,3.5581,0,0,0,0,0,0,0,0,0,0,0,0,0,0,0,0,
565,15.405,-21.85,3.4645,-24.859,1.2831,-17.681,-24.568,-8.3765,15.722,22.327,-1.9393,28.871,18.465,16.199,1.54,15.438,0,0,0,0,0,0,0,0,0,0,0,0,0,0,0,0,
566,12.36,-1.0109,15.23,-9.9639,18.155,-35.77,13.298,20.466,27.576,31.176,-12.047,19.776,8.3693,14.161,13.458,11.319,0,0,0,0,0,0,0,0,0,0,0,0,0,0,0,0,
567,7.3153,1.8305,16.999,-11.068,19.028,-9.8575,8.1654,15.311,22.431,36.028,-11.153,6.6842,-11.725,7.125,10.376,-2.8009,0,0,0,0,0,0,0,0,0,0,0,0,0,0,0,0,
568,-0.72851,-11.327,17.769,1.8254,14.901,-36.946,-5.9649,-1.8438,22.286,24.881,-20.258,3.5914,-10.819,-0.91043,-8.7051,-24.921,0,0,0,0,0,0,0,0,0,0,0,0,0,0,0,0,
569,11.226,13.516,30.539,13.719,32.775,-4.0342,7.9038,17.001,47.14,51.732,6.6332,7.4975,10.085,4.0525,-12.788,-24.043,0,0,0,0,0,0,0,0,0,0,0,0,0,0,0,0,
570,5.1791,-4.6389,12.309,-0.38384,8.6467,-0.12425,5.7705,8.8448,15.994,36.583,-6.4775,-9.596,-2.0111,-6.9847,-3.8726,-12.167,0,0,0,0,0,0,0,0,0,0,0,0,0,0,0,0,
571,11.131,-4.7927,3.0805,-27.488,2.5189,-34.216,-15.363,-10.31,11.847,36.433,-17.588,-20.69,-15.108,-12.022,6.0412,-9.2922,0,0,0,0,0,0,0,0,0,0,0,0,0,0,0,0,
572,13.084,4.0566,11.854,-24.59,17.393,-21.306,-11.496,-17.464,29.702,41.284,-1.6982,-3.782,-14.203,15.941,17.955,-5.4182,0,0,0,0,0,0,0,0,0,0,0,0,0,0,0,0,
573,16.039,2.9084,32.631,-38.692,28.269,-7.3934,20.373,3.3852,41.559,44.138,18.193,11.128,0.70255,34.907,27.869,4.457,0,0,0,0,0,0,0,0,0,0,0,0,0,0,0,0,
574,7.9946,1.7612,17.41,-50.795,17.147,-12.48,14.245,-3.7645,29.417,25.994,-15.913,-8.9617,-16.391,-6.1252,13.785,10.334,0,0,0,0,0,0,0,0,0,0,0,0,0,0,0,0,
575,0.94991,-3.3853,12.19,-15.898,14.024,-12.565,-3.8811,-11.914,20.276,32.849,-22.018,5.9512,4.5175,-7.1554,-4.2982,24.212,0,0,0,0,0,0,0,0,0,0,0,0,0,0,0,0,
576,-3.0949,-12.531,8.9711,21.001,2.9012,6.3501,-5.0065,9.9394,5.1331,22.704,-0.12217,6.8654,0.42743,-2.1842,-8.3794,34.092,0,0,0,0,0,0,0,0,0,0,0,0,0,0,0,0,
577,5.8603,-14.675,-0.24736,-41.102,2.7783,2.2646,-2.1312,5.7927,8.992,19.559,8.7725,6.7785,0.33704,8.7863,0.53929,24.972,0,0,0,0,0,0,0,0,0,0,0,0,0,0,0,0,
578,15.816,-1.8183,19.535,-41.202,17.655,21.181,21.743,9.645,24.85,26.414,7.6693,20.693,4.2473,29.759,17.458,16.852,0,0,0,0,0,0,0,0,0,0,0,0,0,0,0,0,
579,19.775,-1.9575,25.321,-6.2992,20.534,43.101,34.621,9.5002,22.71,19.272,22.569,17.61,5.1588,36.735,27.378,9.7324,0,0,0,0,0,0,0,0,0,0,0,0,0,0,0,0,
580,53.732,17.904,29.108,-7.3982,29.414,48.02,59.501,16.357,15.573,36.131,32.469,22.527,9.0707,37.711,31.299,12.614,0,0,0,0,0,0,0,0,0,0,0,0,0,0,0,0,
581,35.689,16.767,37.897,-7.4964,29.294,51.938,45.38,30.214,22.434,27.99,28.369,31.445,19.984,31.688,33.221,28.495,0,0,0,0,0,0,0,0,0,0,0,0,0,0,0,0,
582,43.646,12.632,46.687,-14.593,42.176,39.856,42.26,35.072,49.296,34.849,21.269,9.3621,-0.10427,12.664,20.142,24.376,0,0,0,0,0,0,0,0,0,0,0,0,0,0,0,0,
583,53.603,6.4988,49.478,-13.691,42.057,53.778,45.14,24.93,47.159,50.71,31.17,-4.72,-20.192,13.641,2.0618,8.2563,0,0,0,0,0,0,0,0,0,0,0,0,0,0,0,0,
584,61.562,9.3674,53.274,0.21149,39.942,46.699,53.022,20.79,28.025,41.572,26.07,-3.8001,-25.277,23.62,-0.01729,3.1373,0,0,0,0,0,0,0,0,0,0,0,0,0,0,0,0,
585,64.523,16.238,39.072,17.114,30.828,56.619,55.907,15.653,45.891,41.436,47.972,6.1215,-23.361,38.602,18.905,16.02,0,0,0,0,0,0,0,0,0,0,0,0,0,0,0,0,
586,47.483,-1.8906,25.872,-3.9816,12.715,41.541,46.794,23.517,43.759,32.301,45.875,20.044,0.55559,38.585,27.829,39.903,0,0,0,0,0,0,0,0,0,0,0,0,0,0,0,0,
587,9.4438,-17.019,4.673,-25.075,-6.3981,36.468,26.682,17.381,-9.3742,8.1651,25.781,19.968,19.473,25.57,23.755,64.788,0,0,0,0,0,0,0,0,0,0,0,0,0,0,0,0,
588,13.406,13.855,19.476,-5.1659,12.49,50.394,29.572,14.249,9.4948,32.03,30.688,17.894,16.393,33.557,19.682,60.674,0,0,0,0,0,0,0,0,0,0,0,0,0,0,0,0,
589,7.3689,-6.2688,23.281,-18.259,7.3783,13.32,32.462,15.118,7.3648,21.896,31.596,5.8214,4.3123,23.546,16.609,37.561,0,0,0,0,0,0,0,0,0,0,0,0,0,0,0,0,
590,11.332,-10.39,20.088,-15.351,11.269,2.249,21.354,1.988,0.2354,5.7635,2.5057,-9.2506,-10.768,1.5361,3.5368,11.447,0,0,0,0,0,0,0,0,0,0,0,0,0,0,0,0,
591,-11.704,-5.5098,17.898,-3.4426,7.1604,4.1791,18.248,2.8596,16.108,4.6331,2.4162,1.6781,1.152,-3.472,-2.5352,7.3322,0,0,0,0,0,0,0,0,0,0,0,0,0,0,0,0,
592,0.25984,8.3717,14.708,23.463,2.0514,14.107,8.1417,8.7312,-3.0178,10.503,29.326,27.606,24.071,11.519,13.392,29.217,0,0,0,0,0,0,0,0,0,0,0,0,0,0,0,0,
593,-10.778,16.254,5.5189,46.37,-3.0575,-18.965,4.0353,17.602,5.8551,13.373,6.2346,33.532,22.99,3.509,23.318,56.1,0,0,0,0,0,0,0,0,0,0,0,0,0,0,0,0,
594,-20.815,29.138,8.3319,3.2799,-1.1656,-18.036,-22.071,12.473,-7.2731,13.243,6.1428,56.459,40.909,26.499,26.243,69.983,0,0,0,0,0,0,0,0,0,0,0,0,0,0,0,0,
595,6.1476,28.026,19.147,-42.811,7.7277,5.892,15.823,21.345,10.601,3.1158,42.05,52.384,31.826,54.488,32.165,74.865,0,0,0,0,0,0,0,0,0,0,0,0,0,0,0,0,
596,6.1101,21.914,6.9632,-19.902,-3.3786,13.822,36.716,10.217,15.476,-12.011,34.956,28.309,13.742,46.476,36.086,67.745,0,0,0,0,0,0,0,0,0,0,0,0,0,0,0,0,
597,-16.927,19.805,2.781,-19.991,-13.485,28.75,18.609,4.09,-4.649,-18.138,12.862,13.234,-0.34002,28.464,27.006,41.624,0,0,0,0,0,0,0,0,0,0,0,0,0,0,0,0,
598,2.0379,28.698,12.602,3.9205,0.41226,0.67906,21.504,17.966,-12.771,4.738,16.773,15.163,14.58,21.456,15.928,19.504,0,0,0,0,0,0,0,0,0,0,0,0,0,0,0,0,
599,-6.9957,16.595,0.42667,-0.16592,-13.689,5.613,4.4023,9.8438,-20.892,-2.3847,24.685,27.094,33.502,21.451,14.853,18.387,0,0,0,0,0,0,0,0,0,0,0,0,0,0,0,0,
600,-27.028,0.49507,-10.746,-5.2494,-28.787,8.548,-6.6961,6.7254,-17.011,-8.5053,23.599,4.0281,15.427,3.4492,7.78,21.274,0,0,0,0,0,0,0,0,0,0,0,0,0,0,0,0,
601,-37.061,-18.602,-19.916,15.669,-28.885,-14.516,-16.792,-6.3898,-23.128,-19.625,15.517,0.96549,9.355,-0.54942,-3.2909,17.163,0,0,0,0,0,0,0,0,0,0,0,0,0,0,0,0,
602,-23.092,2.3029,-6.083,30.588,-18.981,-12.577,-7.8843,16.497,-3.2446,-21.743,18.436,13.905,13.284,11.454,-4.3603,16.053,0,0,0,0,0,0,0,0,0,0,0,0,0,0,0,0,
603,-19.123,20.211,1.7517,17.509,-9.0751,-15.637,-9.9758,22.386,9.6384,-1.8599,5.3556,12.846,3.2144,2.459,-1.4287,16.945,0,0,0,0,0,0,0,0,0,0,0,0,0,0,0,0,
604,-23.152,21.121,2.5886,3.4285,-2.1683,23.304,-1.0656,24.277,-6.4746,4.0247,14.277,15.787,-0.85551,5.4652,3.5037,18.837,0,0,0,0,0,0,0,0,0,0,0,0,0,0,0,0,
605,-38.182,5.0317,-1.5729,-12.652,-14.261,-16.754,5.845,18.167,-18.588,-9.0898,20.196,25.727,11.073,12.47,15.435,23.728,0,0,0,0,0,0,0,0,0,0,0,0,0,0,0,0,
606,-65.21,-11.055,-10.732,-9.7281,-18.352,-33.814,-5.2449,10.058,-37.7,-27.203,9.115,20.667,13.003,-2.5266,10.364,20.616,0,0,0,0,0,0,0,0,0,0,0,0,0,0,0,0,
607,-75.238,-27.14,-16.888,-6.8059,-24.442,-19.873,-10.334,5.9507,-32.811,-31.315,3.035,26.606,18.933,2.4777,5.2923,14.504,0,0,0,0,0,0,0,0,0,0,0,0,0,0,0,0,
608,-68.267,-28.222,-21.044,-8.8843,-33.532,-1.9307,-11.423,8.843,-39.923,-39.427,2.9536,25.545,12.862,5.4811,3.2201,10.391,0,0,0,0,0,0,0,0,0,0,0,0,0,0,0,0,
609,-50.295,-26.301,-27.198,-7.962,-33.621,-2.9887,-9.5112,8.7365,-35.033,-31.539,-0.12647,8.4828,-0.20916,5.4858,-1.8523,-7.7223,0,0,0,0,0,0,0,0,0,0,0,0,0,0,0,0,
610,-39.322,-22.379,-28.35,-1.0396,-36.708,-16.046,-11.598,1.6305,-40.141,-36.648,-2.2058,3.4215,-3.2801,11.491,-7.9251,-25.836,0,0,0,0,0,0,0,0,0,0,0,0,0,0,0,0,
611,-33.349,-26.457,-43.499,8.884,-50.795,4.898,-14.684,-6.4741,-35.249,-35.757,1.7138,-10.64,-18.351,3.496,-11.999,-35.949,0,0,0,0,0,0,0,0,0,0,0,0,0,0,0,0,
612,-42.375,-51.534,-68.649,-44.192,-72.882,11.843,-18.77,-38.579,-49.357,-51.865,-1.3663,-42.701,-39.421,-8.4989,-19.074,-47.063,0,0,0,0,0,0,0,0,0,0,0,0,0,0,0,0,
613,-49.401,-47.609,-67.796,-44.265,-76.969,-12.211,-36.853,-50.682,-54.465,-54.974,-0.44491,-38.761,-37.49,-5.4917,-20.149,-50.176,0,0,0,0,0,0,0,0,0,0,0,0,0,0,0,0,
614,-55.428,-34.681,-61.944,-41.339,-64.056,1.7376,-33.935,-32.785,-44.574,-52.083,7.4771,-27.82,-29.56,-9.4837,-15.223,-39.288,0,0,0,0,0,0,0,0,0,0,0,0,0,0,0,0,
615,-42.454,-21.753,-39.09,-50.415,-43.142,1.6848,-20.016,-33.888,-23.682,-29.191,24.401,-9.8789,-11.628,-7.475,-4.2974,-24.401,0,0,0,0,0,0,0,0,0,0,0,0,0,0,0,0,
616,-40.481,-10.823,-26.234,-23.489,-35.228,-1.3667,-18.097,-19.989,-28.79,-13.299,19.324,14.063,11.304,3.5341,13.629,-2.5131,0,0,0,0,0,0,0,0,0,0,0,0,0,0,0,0,
617,-22.507,-9.8919,-9.3766,-9.5605,-10.314,10.583,-5.1776,1.9102,-7.8968,12.594,27.248,19.005,11.236,16.544,34.556,19.375,0,0,0,0,0,0,0,0,0,0,0,0,0,0,0,0,
618,-8.5333,2.0408,12.482,25.367,4.6011,19.532,11.741,16.81,19.997,14.487,49.173,42.949,36.169,38.555,57.484,43.264,0,0,0,0,0,0,0,0,0,0,0,0,0,0,0,0,
619,-0.55973,13.977,22.343,57.295,13.517,57.481,34.662,46.712,31.891,25.383,64.099,72.892,61.101,59.568,81.412,72.154,0,0,0,0,0,0,0,0,0,0,0,0,0,0,0,0,
620,10.413,23.913,20.204,57.223,17.433,72.431,49.584,65.614,14.786,11.279,56.025,67.836,61.034,68.58,81.34,80.043,0,0,0,0,0,0,0,0,0,0,0,0,0,0,0,0,
621,13.387,16.85,21.068,26.153,10.351,27.381,68.506,61.517,12.681,8.1753,26.95,34.781,36.969,55.594,46.267,46.934,0,0,0,0,0,0,0,0,0,0,0,0,0,0,0,0,
622,-9.6381,6.7908,1.9339,-4.9174,-1.7299,-0.66796,34.429,18.423,-6.4231,7.0731,-45.125,-6.2734,8.9036,-5.3932,-25.807,-13.176,0,0,0,0,0,0,0,0,0,0,0,0,0,0,0,0,
623,-21.662,-3.2672,8.8026,9.0149,3.1906,-13.715,12.352,15.331,-6.5234,15.972,-51.198,-8.3269,7.8389,-18.378,-66.88,-47.285,0,0,0,0,0,0,0,0,0,0,0,0,0,0,0,0,
624,-60.685,-40.324,-28.327,-22.052,-35.888,-39.763,-10.721,-10.761,-22.623,-19.127,-60.271,-25.379,-17.225,-32.361,-68.954,-60.394,0,0,0,0,0,0,0,0,0,0,0,0,0,0,0,0,
625,-34.707,-38.379,-22.454,-9.118,-21.965,-7.8107,-11.793,-18.851,-20.723,-18.225,-17.342,14.568,13.711,14.656,-33.026,-34.502,0,0,0,0,0,0,0,0,0,0,0,0,0,0,0,0,
626,-7.7301,-32.434,-1.5807,-7.1859,-10.044,22.144,18.137,15.058,-12.822,-1.3241,-5.413,8.5162,0.64704,22.674,-6.0981,-7.6104,0,0,0,0,0,0,0,0,0,0,0,0,0,0,0,0,
627,-23.755,-29.487,-18.707,-21.252,-26.122,-9.9006,0.06716,-6.0322,-23.923,-20.423,6.5168,3.4653,6.5845,9.6934,-1.1696,6.2825,0,0,0,0,0,0,0,0,0,0,0,0,0,0,0,0,
628,-21.777,-14.538,-5.83,9.6853,-7.1984,-2.9439,9.9998,17.88,-29.022,-4.5201,17.449,36.416,42.523,17.714,1.7595,19.176,0,0,0,0,0,0,0,0,0,0,0,0,0,0,0,0,
629,-38.8,-14.589,6.0483,39.62,-2.2747,10.013,7.9329,45.794,-29.119,-8.6174,4.3809,36.366,36.461,11.735,4.6883,25.07,0,0,0,0,0,0,0,0,0,0,0,0,0,0,0,0,
630,-23.823,-11.637,11.927,30.556,10.649,25.97,1.8651,43.707,-17.218,-3.7142,3.3115,18.316,9.3999,11.756,4.6159,17.963,0,0,0,0,0,0,0,0,0,0,0,0,0,0,0,0,
631,0.15609,-21.682,18.81,-9.5039,15.576,16.929,12.798,33.623,-9.3139,6.1918,12.246,4.2687,0.34034,12.778,3.5432,9.8543,0,0,0,0,0,0,0,0,0,0,0,0,0,0,0,0,
632,-7.8652,-47.726,-5.306,-24.566,-14.498,-34.112,1.7326,8.5414,-2.4094,-3.9005,-19.822,-14.78,-10.72,-20.2,-20.53,-13.255,0,0,0,0,0,0,0,0,0,0,0,0,0,0,0,0,
633,-10.885,-50.769,-25.42,10.373,-28.569,2.847,-19.333,4.4594,-5.5032,-21.992,-33.89,-18.828,-9.7809,-25.179,-46.604,-31.366,0,0,0,0,0,0,0,0,0,0,0,0,0,0,0,0,
634,-17.904,-58.809,-22.531,2.3144,-31.639,14.808,-8.3973,7.3797,-24.596,-25.082,-2.956,-17.874,-15.84,-4.1548,-51.677,-32.474,0,0,0,0,0,0,0,0,0,0,0,0,0,0,0,0,
635,-6.925,-57.847,-11.641,-32.74,-17.709,24.768,1.5402,-3.6981,-10.689,-21.171,-10.022,-16.919,-16.899,-5.1304,-48.749,-38.581,0,0,0,0,0,0,0,0,0,0,0,0,0,0,0,0,
636,2.0553,-49.884,-0.74892,-16.797,-6.7776,19.729,23.478,4.2253,-1.7791,-9.2596,-35.088,-11.965,-9.9581,-14.106,-46.822,-41.688,0,0,0,0,0,0,0,0,0,0,0,0,0,0,0,0,
637,-15.964,-60.921,-8.8572,2.1419,-22.848,0.69224,10.416,22.147,-22.871,-19.348,-37.154,1.9893,2.984,-19.083,-42.895,-32.794,0,0,0,0,0,0,0,0,0,0,0,0,0,0,0,0,
638,-40.983,-41.957,-28.965,30.083,-34.918,-7.3439,-19.647,14.07,-34.962,-30.437,-45.22,-15.056,-6.0738,-35.06,-51.968,-51.901,0,0,0,0,0,0,0,0,0,0,0,0,0,0,0,0,
639,-36.002,-32.992,-22.071,7.0273,-29.987,-18.381,-26.708,1.9934,-25.054,-20.526,-43.285,-22.101,-4.1308,-39.035,-60.042,-73.008,0,0,0,0,0,0,0,0,0,0,0,0,0,0,0,0,
640,-33.019,-35.023,-31.172,-21.026,-42.054,-29.415,-36.766,-7.0814,-13.143,-27.61,-18.347,-10.144,1.8136,-17.007,-38.115,-52.114,0,0,0,0,0,0,0,0,0,0,0,0,0,0,0,0,
641,-18.036,-54.053,-44.273,-18.081,-46.119,-10.447,-28.822,-11.154,-13.23,-24.693,-17.409,-13.187,-12.242,-6.9785,-17.186,-27.219,0,0,0,0,0,0,0,0,0,0,0,0,0,0,0,0,
642,-14.054,-58.082,-29.372,-3.1337,-39.185,1.5199,-14.879,-5.2265,-22.318,-21.776,-5.469,-14.228,-24.295,3.051,-14.256,-36.322,0,0,0,0,0,0,0,0,0,0,0,0,0,0,0,0,
643,-11.071,-53.11,-27.468,-2.1857,-37.248,7.486,-8.9344,-4.2968,-26.405,-24.858,10.471,-11.269,-21.349,3.0801,-17.326,-49.425,0,0,0,0,0,0,0,0,0,0,0,0,0,0,0,0,
644,-8.0888,-42.138,-21.563,-12.236,-29.311,8.4534,-10.99,-15.366,-3.491,-13.94,-22.589,-22.309,-21.403,-12.89,-32.397,-65.528,0,0,0,0,0,0,0,0,0,0,0,0,0,0,0,0,
645,-26.105,-33.163,-2.6548,35.714,-16.372,-11.578,-11.045,-9.4332,-3.5749,-5.0192,-24.648,-7.3485,-9.4554,-2.8579,-40.467,-59.63,0,0,0,0,0,0,0,0,0,0,0,0,0,0,0,0,
646,-4.1191,-24.185,6.2566,33.662,-3.4305,20.392,10.902,8.5009,-27.656,-0.09564,-9.7065,3.612,-5.5085,7.174,-30.538,-39.731,0,0,0,0,0,0,0,0,0,0,0,0,0,0,0,0,
647,-13.133,-21.208,2.1693,-3.3862,-11.489,2.3614,14.851,11.436,-14.737,-13.172,-22.765,5.5729,8.4391,-7.7938,-22.609,-29.833,0,0,0,0,0,0,0,0,0,0,0,0,0,0,0,0,
648,-10.146,-23.227,-6.9156,-12.433,-21.546,-7.6653,0.80003,8.3723,-21.817,-24.247,-18.822,16.535,14.388,-8.7607,-16.681,-21.935,0,0,0,0,0,0,0,0,0,0,0,0,0,0,0,0,
649,-2.1578,-16.245,-13.998,23.52,-23.601,-0.69092,7.7515,17.312,-26.896,-30.32,0.12101,24.498,20.338,0.27301,-12.754,-8.0358,0,0,0,0,0,0,0,0,0,0,0,0,0,0,0,0,
650,-18.169,-5.2613,-6.078,32.475,-21.654,7.2844,4.704,24.252,-17.975,-43.393,0.06421,29.463,37.289,6.308,-3.826,10.864,0,0,0,0,0,0,0,0,0,0,0,0,0,0,0,0,
651,-8.1799,1.7245,11.845,23.43,-1.7059,19.261,6.6583,16.195,-16.051,-10.464,-1.9913,16.429,21.241,6.3448,-4.8975,4.766,0,0,0,0,0,0,0,0,0,0,0,0,0,0,0,0,
652,8.8107,8.7122,24.771,44.39,13.245,28.239,14.615,28.139,-1.1269,10.467,-13.046,13.398,10.195,-1.6166,-12.968,-18.332,0,0,0,0,0,0,0,0,0,0,0,0,0,0,0,0,
653,-1.1987,12.701,16.698,42.349,0.19528,1.2155,-0.42521,13.085,1.7981,1.3984,-7.0992,14.365,3.1481,0.42179,-13.038,-30.429,0,0,0,0,0,0,0,0,0,0,0,0,0,0,0,0,
654,5.7915,10.692,20.627,62.309,10.147,-1.8076,8.5345,22.032,11.723,-3.6692,15.847,32.333,23.102,22.46,-0.1092,-15.527,0,0,0,0,0,0,0,0,0,0,0,0,0,0,0,0,
655,4.7829,8.685,23.558,104.27,10.1,21.17,29.495,51.98,7.6487,1.2646,18.794,48.302,40.056,31.5,14.82,6.3759,0,0,0,0,0,0,0,0,0,0,0,0,0,0,0,0,
656,-27.227,7.6797,4.4911,37.231,-9.9463,9.1492,19.455,47.928,-48.425,-20.801,21.743,41.27,35.011,27.54,17.749,13.279,0,0,0,0,0,0,0,0,0,0,0,0,0,0,0,0,
657,2.7653,13.676,14.427,1.1928,6.0103,42.13,41.418,42.879,-22.497,-8.8652,55.694,44.24,30.965,51.584,24.68,6.1829,0,0,0,0,0,0,0,0,0,0,0,0,0,0,0,0,
658,19.76,13.674,25.367,21.156,9.9687,31.113,51.384,42.832,9.433,-1.9276,39.646,41.211,19.921,45.628,31.611,-8.9141,0,0,0,0,0,0,0,0,0,0,0,0,0,0,0,0,
659,21.754,14.673,14.307,35.123,-3.0721,35.096,36.35,27.787,18.363,-13.989,43.596,31.182,19.877,34.672,43.541,-15.011,0,0,0,0,0,0,0,0,0,0,0,0,0,0,0,0,
660,25.748,17.673,13.249,27.09,0.88765,12.078,39.316,15.744,-5.7058,0.9512,32.545,14.154,10.834,15.715,29.47,-27.109,0,0,0,0,0,0,0,0,0,0,0,0,0,0,0,0,
661,-9.2577,16.675,10.194,28.058,-7.1512,5.0614,21.282,8.7015,-13.773,-7.1076,8.4957,13.125,5.7909,-2.2422,0.39835,-43.205,0,0,0,0,0,0,0,0,0,0,0,0,0,0,0,0,
662,10.737,35.677,21.138,61.026,6.8093,13.046,13.25,15.659,-3.8418,4.8335,-2.5541,14.097,7.7478,-9.1993,-17.674,-54.3,0,0,0,0,0,0,0,0,0,0,0,0,0,0,0,0,
663,18.73,27.679,21.083,17.993,4.7697,21.029,16.218,20.618,2.0896,6.7746,23.397,20.07,32.707,2.8447,-13.747,-41.395,0,0,0,0,0,0,0,0,0,0,0,0,0,0,0,0,
664,0.7244,19.682,14.031,11.961,-5.2689,-11.988,9.1867,21.578,2.0214,-2.2835,7.3488,11.045,23.668,-6.1105,-4.8179,-24.489,0,0,0,0,0,0,0,0,0,0,0,0,0,0,0,0,
665,-11.28,29.687,2.9794,54.93,-8.3064,-20.0,-9.8433,12.539,-7.0445,-9.34,-13.699,7.0203,16.627,-17.065,-3.8888,-15.584,0,0,0,0,0,0,0,0,0,0,0,0,0,0,0,0,
666,-16.283,36.693,10.93,47.901,-4.3431,-19.012,-11.871,21.501,-2.1098,-4.396,-11.746,8.9964,9.5878,-12.018,-8.9588,-20.676,0,0,0,0,0,0,0,0,0,0,0,0,0,0,0,0,
667,-20.288,42.7,9.8818,7.875,-3.3798,-7.0251,-12.899,11.463,-14.175,-11.452,1.2077,3.9718,-13.451,6.0283,-7.029,-47.768,0,0,0,0,0,0,0,0,0,0,0,0,0,0,0,0,
668,17.707,34.708,29.833,33.849,19.583,-0.03851,14.073,22.425,18.759,1.4924,17.161,19.946,-2.4906,30.074,5.8995,-62.859,0,0,0,0,0,0,0,0,0,0,0,0,0,0,0,0,
669,18.702,14.717,34.786,26.823,15.546,5.9492,30.044,33.389,20.692,0.43787,26.115,25.921,17.471,35.12,11.827,-55.951,0,0,0,0,0,0,0,0,0,0,0,0,0,0,0,0,
670,3.6979,13.729,23.743,38.798,9.5122,21.938,34.017,30.354,-12.372,-13.614,29.07,21.899,10.434,30.168,5.7556,-36.043,0,0,0,0,0,0,0,0,0,0,0,0,0,0,0,0,
671,21.694,9.7425,24.702,10.772,10.481,30.927,31.992,25.323,5.5658,-3.6647,19.026,17.877,-4.6035,27.217,-2.3151,-19.133,0,0,0,0,0,0,0,0,0,0,0,0,0,0,0,0,
672,33.692,5.7565,30.664,-6.25,9.4503,14.917,38.968,22.293,28.506,5.2865,13.982,24.855,5.359,29.267,-8.3858,-10.223,0,0,0,0,0,0,0,0,0,0,0,0,0,0,0,0,
673,13.69,15.773,22.628,21.731,9.4217,-13.091,32.946,23.265,-0.55445,-4.7609,1.9385,26.834,9.3228,18.317,-12.457,-7.3144,0,0,0,0,0,0,0,0,0,0,0,0,0,0,0,0,
674,11.688,14.79,28.594,51.71,8.393,15.902,27.925,32.238,10.386,5.1917,15.896,36.813,19.287,30.368,-7.5287,4.5951,0,0,0,0,0,0,0,0,0,0,0,0,0,0,0,0,
675,10.687,-3.1905,14.559,22.689,-7.6362,23.894,26.904,31.21,20.326,-0.85575,10.853,22.791,15.251,20.418,-5.601,11.505,0,0,0,0,0,0,0,0,0,0,0,0,0,0,0,0,
676,-5.3146,-8.1698,-4.4734,10.669,-17.663,-3.1125,14.882,8.1832,1.2674,-18.902,5.8108,13.77,14.215,14.469,-9.6736,7.4153,0,0,0,0,0,0,0,0,0,0,0,0,0,0,0,0,
677,-6.3141,-12.148,8.4981,37.65,-11.688,15.883,10.863,6.1585,8.21,-16.945,23.771,20.751,17.182,18.522,-9.7452,-2.6728,0,0,0,0,0,0,0,0,0,0,0,0,0,0,0,0,
678,24.689,2.8742,34.471,16.632,19.288,35.88,20.847,23.136,2.1548,9.0126,25.731,27.733,14.148,29.577,-1.8156,-2.759,0,0,0,0,0,0,0,0,0,0,0,0,0,0,0,0,
679,54.692,14.898,63.447,20.618,46.267,31.879,45.834,47.116,32.102,29.971,34.695,51.717,34.116,56.635,21.116,13.157,0,0,0,0,0,0,0,0,0,0,0,0,0,0,0,0,
680,16.696,13.923,47.425,40.603,25.245,-1.1218,40.822,54.098,37.049,8.9315,25.66,47.701,25.083,39.693,28.048,17.073,0,0,0,0,0,0,0,0,0,0,0,0,0,0,0,0,
681,-6.2988,23.95,31.405,51.592,20.226,14.882,10.811,54.081,12.998,1.8937,9.6251,55.686,40.052,27.753,12.98,9.9902,0,0,0,0,0,0,0,0,0,0,0,0,0,0,0,0,
682,-15.294,36.977,37.386,67.579,22.208,13.883,22.8,73.065,0.94758,9.8566,26.59,58.671,52.02,32.812,0.91256,15.907,0,0,0,0,0,0,0,0,0,0,0,0,0,0,0,0,
683,-14.29,35.004,33.368,80.567,18.189,-7.1177,24.79,61.048,-10.104,-2.1808,28.554,56.655,52.989,39.869,0.8438,32.824,0,0,0,0,0,0,0,0,0,0,0,0,0,0,0,0,
684,-5.286,36.033,33.353,91.556,22.173,11.883,27.779,59.033,-25.152,-10.216,4.5181,44.64,32.958,32.925,-1.2268,21.74,0,0,0,0,0,0,0,0,0,0,0,0,0,0,0,0,
685,-5.2809,39.063,32.34,29.544,15.157,8.8852,31.768,45.019,-17.201,-15.251,9.4833,51.626,42.928,32.983,-0.29787,15.656,0,0,0,0,0,0,0,0,0,0,0,0,0,0,0,0,
686,-4.2742,28.093,21.329,11.532,7.1432,-11.111,38.761,32.007,-5.2497,-16.283,6.4498,49.614,46.899,21.043,-4.3683,19.574,0,0,0,0,0,0,0,0,0,0,0,0,0,0,0,0,
687,-0.267,38.124,17.32,37.524,1.1304,15.896,24.756,36.998,-13.295,-14.314,-0.58176,52.602,51.871,8.104,-8.4375,26.492,0,0,0,0,0,0,0,0,0,0,0,0,0,0,0,0,
688,-3.2596,32.157,8.3123,44.516,-12.882,-6.0985,-1.2499,38.988,-25.34,-33.345,-1.6139,44.59,48.843,5.1645,-6.506,31.41,0,0,0,0,0,0,0,0,0,0,0,0,0,0,0,0,
689,1.7479,28.191,11.306,38.51,-1.8935,4.9071,-9.2548,31.98,4.6159,-18.373,9.3543,50.578,51.816,21.225,6.4249,40.33,0,0,0,0,0,0,0,0,0,0,0,0,0,0,0,0,
690,-13.246,22.227,13.301,30.505,-7.9052,2.9131,8.7414,28.972,-5.4288,-9.4023,20.322,28.566,27.788,20.285,12.355,41.249,0,0,0,0,0,0,0,0,0,0,0,0,0,0,0,0,
691,-28.24,38.264,27.295,57.499,12.083,1.9173,2.7362,16.964,-19.474,-7.4319,15.289,29.553,31.759,32.343,16.283,44.167,0,0,0,0,0,0,0,0,0,0,0,0,0,0,0,0,
692,2.7661,54.302,47.291,77.493,35.072,6.9209,22.732,41.956,10.481,11.54,22.257,32.54,31.732,40.402,23.211,32.087,0,0,0,0,0,0,0,0,0,0,0,0,0,0,0,0,
693,11.773,33.342,36.29,50.488,16.062,8.9282,19.728,42.95,31.439,8.5135,23.226,27.529,18.706,34.463,24.141,25.008,0,0,0,0,0,0,0,0,0,0,0,0,0,0,0,0,
694,19.779,8.3819,22.289,-0.51861,10.052,-4.0646,19.725,23.945,19.397,-5.5125,23.194,33.517,24.679,28.523,20.07,42.928,0,0,0,0,0,0,0,0,0,0,0,0,0,0,0,0,
695,52.787,19.425,41.29,-10.521,29.044,19.944,27.722,27.94,38.355,25.463,37.164,48.507,41.653,33.584,21.999,67.848,0,0,0,0,0,0,0,0,0,0,0,0,0,0,0,0,
696,56.797,32.47,62.295,26.481,47.039,35.955,34.723,41.939,27.316,37.441,37.137,58.499,46.628,37.648,31.93,85.77,0,0,0,0,0,0,0,0,0,0,0,0,0,0,0,0,
697,56.808,29.518,73.303,34.482,66.036,43.968,49.727,57.941,56.279,48.421,52.11,60.492,33.605,46.713,36.862,80.695,0,0,0,0,0,0,0,0,0,0,0,0,0,0,0,0,
698,46.818,19.567,65.312,46.483,51.034,34.981,62.731,68.943,67.242,32.402,56.083,57.485,32.582,49.777,37.795,66.621,0,0,0,0,0,0,0,0,0,0,0,0,0,0,0,0,
699,33.828,26.615,48.322,73.485,33.032,36.993,61.736,51.946,32.205,20.383,35.057,51.479,42.56,45.842,35.726,72.545,0,0,0,0,0,0,0,0,0,0,0,0,0,0,0,0,
700,21.838,12.664,13.333,20.488,2.03,39.006,44.742,28.951,10.169,-2.6356,22.03,25.473,22.538,27.907,24.657,68.469,0,0,0,0,0,0,0,0,0,0,0,0,0,0,0,0,
701,31.848,13.715,-1.6548,14.491,-18.971,28.018,20.747,6.9557,-5.8672,-9.6537,30.004,23.467,26.517,26.972,20.588,68.393,0,0,0,0,0,0,0,0,0,0,0,0,0,0,0,0,
702,43.858,22.767,-10.642,-4.5057,-22.972,58.033,15.754,-6.0389,3.0977,-7.6704,33.98,17.461,27.495,29.037,20.518,70.317,0,0,0,0,0,0,0,0,0,0,0,0,0,0,0,0,
703,33.87,14.821,-2.6262,-10.499,-18.971,12.048,32.761,1.9669,8.0639,-17.686,33.955,14.454,24.474,29.103,15.448,68.242,0,0,0,0,0,0,0,0,0,0,0,0,0,0,0,0,
704,-2.117,-1.1239,-0.60756,15.51,-14.968,0.06415,12.769,6.9747,-29.968,-36.7,38.932,17.448,20.452,22.17,-1.6212,55.167,0,0,0,0,0,0,0,0,0,0,0,0,0,0,0,0,
705,5.898,22.933,19.413,50.52,11.037,51.084,24.779,27.984,-20.998,-14.71,46.91,36.444,31.432,36.237,-1.6903,47.092,0,0,0,0,0,0,0,0,0,0,0,0,0,0,0,0,
706,8.9143,43.994,28.439,53.531,15.045,45.105,51.791,51.997,-11.025,-1.7176,57.89,48.443,43.414,67.307,21.242,57.02,0,0,0,0,0,0,0,0,0,0,0,0,0,0,0,0,
707,4.9317,16.058,9.4669,-15.457,-1.9438,28.127,57.806,33.013,-6.0498,-13.722,50.87,20.442,19.395,55.377,33.175,57.95,0,0,0,0,0,0,0,0,0,0,0,0,0,0,0,0,
708,13.949,18.123,22.496,5.5574,15.068,42.15,43.822,16.03,4.9256,-14.726,42.852,29.442,34.378,48.448,27.11,55.881,0,0,0,0,0,0,0,0,0,0,0,0,0,0,0,0,
709,8.9671,32.188,41.527,38.571,27.079,35.173,46.839,36.047,-3.0987,0.27,42.834,40.441,37.361,58.519,26.044,64.812,0,0,0,0,0,0,0,0,0,0,0,0,0,0,0,0,
710,18.983,26.251,39.554,14.582,30.088,43.194,51.854,32.062,8.8747,-9.7351,42.813,32.437,31.341,51.585,23.976,72.741,0,0,0,0,0,0,0,0,0,0,0,0,0,0,0,0,
711,41.999,39.314,57.582,43.595,46.095,68.213,68.866,38.076,27.848,9.2599,66.792,37.433,31.323,57.652,24.905,60.668,0,0,0,0,0,0,0,0,0,0,0,0,0,0,0,0,
712,16.014,27.378,45.611,53.611,29.104,37.232,75.88,38.091,10.822,-0.74477,53.771,24.429,15.303,44.719,21.832,32.595,0,0,0,0,0,0,0,0,0,0,0,0,0,0,0,0,
713,20.03,55.444,50.641,6.6261,42.114,24.255,59.896,45.108,13.797,14.252,32.749,21.424,27.283,25.786,10.759,9.5216,0,0,0,0,0,0,0,0,0,0,0,0,0,0,0,0,
714,-1.9539,39.511,34.673,-5.3577,20.124,10.276,40.911,22.125,17.772,16.249,17.726,3.4209,15.265,12.852,-5.3135,0.44911,0,0,0,0,0,0,0,0,0,0,0,0,0,0,0,0,
715,-29.938,6.579,8.706,2.6597,-2.865,1.2967,23.926,-6.8564,-23.253,-22.753,13.704,-2.5831,-2.7542,14.917,-11.386,4.3773,0,0,0,0,0,0,0,0,0,0,0,0,0,0,0,0,
716,-30.921,6.6479,1.7401,7.6771,-6.8535,19.321,17.941,-6.8377,-17.275,-18.753,7.6832,-2.586,-0.77183,3.9833,-8.4587,13.307,0,0,0,0,0,0,0,0,0,0,0,0,0,0,0,0,
717,-41.902,16.717,0.77559,27.693,-9.8415,6.3451,-6.0421,-1.8182,-40.297,-23.752,14.664,19.411,28.212,6.0502,0.46958,29.238,0,0,0,0,0,0,0,0,0,0,0,0,0,0,0,0,
718,-9.884,24.786,21.812,27.711,17.171,21.369,10.975,30.201,-8.3179,-14.752,12.643,23.407,25.193,6.1165,-0.60267,37.167,0,0,0,0,0,0,0,0,0,0,0,0,0,0,0,0,
719,-13.866,-5.1417,19.851,21.734,15.187,24.394,17.993,25.222,3.6614,-16.749,8.6244,6.4039,12.174,-5.8158,-15.675,29.097,0,0,0,0,0,0,0,0,0,0,0,0,0,0,0,0,
720,-1.8467,4.9324,38.895,37.756,33.205,18.42,15.013,19.247,12.642,-7.7438,25.605,13.402,26.157,5.2525,-11.748,30.028,0,0,0,0,0,0,0,0,0,0,0,0,0,0,0,0,
721,19.172,25.006,45.94,35.777,46.225,39.446,18.034,39.273,19.624,7.2633,8.586,11.401,12.14,-4.6792,-1.8209,34.96,0,0,0,0,0,0,0,0,0,0,0,0,0,0,0,0,
722,-2.8077,16.08,25.985,-0.20034,22.244,19.472,0.0554,32.3,-18.393,-8.7288,-16.432,10.401,13.125,-15.611,-6.8935,38.893,0,0,0,0,0,0,0,0,0,0,0,0,0,0,0,0,
723,-13.788,-5.8458,14.03,-10.177,12.263,-4.5016,-7.9233,17.326,-10.409,-17.721,-8.45,-5.5999,0.10966,-14.543,-12.966,33.827,0,0,0,0,0,0,0,0,0,0,0,0,0,0,0,0,
724,9.234,-12.769,14.078,-13.155,16.283,25.526,-4.9013,3.3523,23.576,-7.7119,0.53306,-17.6,-7.9044,-11.474,-7.0389,24.76,0,0,0,0,0,0,0,0,0,0,0,0,0,0,0,0,
725,10.255,-19.693,7.126,-4.1293,2.3037,26.555,-7.8782,-8.6205,10.561,-14.702,22.517,-13.601,4.0812,-5.4051,8.8882,18.694,0,0,0,0,0,0,0,0,0,0,0,0,0,0,0,0,
726,4.2765,-16.615,0.17646,46.899,1.3262,28.585,-4.8533,-2.5912,11.546,-8.6915,8.501,-17.601,-4.9342,-15.335,10.815,9.6273,0,0,0,0,0,0,0,0,0,0,0,0,0,0,0,0,
727,-6.7014,-21.537,-11.772,-3.0741,-10.651,24.617,-11.826,-8.5605,-24.468,-28.68,-6.5135,-13.601,-9.9495,-5.264,3.7429,-1.44,0,0,0,0,0,0,0,0,0,0,0,0,0,0,0,0,
728,15.321,-13.46,4.2814,-23.047,2.3729,34.65,9.2008,-6.5299,-3.4829,-15.668,22.472,0.39855,12.036,15.806,5.671,3.4927,0,0,0,0,0,0,0,0,0,0,0,0,0,0,0,0,
729,20.345,1.6181,10.335,19.98,15.397,28.682,24.229,-7.4989,16.504,-2.6552,12.458,-13.602,4.0218,3.8762,6.5993,9.426,0,0,0,0,0,0,0,0,0,0,0,0,0,0,0,0,
730,29.369,-7.3027,27.39,9.0087,25.421,27.715,32.257,-8.4675,33.493,6.3587,-10.556,-29.602,-15.992,-18.054,-10.472,-6.6392,0,0,0,0,0,0,0,0,0,0,0,0,0,0,0,0,
731,27.394,-17.223,19.447,-19.961,18.447,43.747,4.2845,-15.434,-4.5175,-10.626,-16.572,-35.604,-15.007,-16.987,-29.546,-25.705,0,0,0,0,0,0,0,0,0,0,0,0,0,0,0,0,
732,48.418,-9.1421,44.506,4.066,47.475,57.779,26.312,-1.4005,30.474,13.391,-0.58738,-9.6045,4.9783,3.0803,-29.622,-20.772,0,0,0,0,0,0,0,0,0,0,0,0,0,0,0,0,
733,47.443,-20.06,59.568,24.096,53.504,29.814,44.341,27.635,36.466,8.4105,20.399,1.3971,2.9657,7.1502,-9.6977,0.16227,0,0,0,0,0,0,0,0,0,0,0,0,0,0,0,0,
734,24.472,-20.977,47.631,-10.87,47.535,27.849,33.372,33.673,19.462,9.4322,2.3857,-6.6007,0.95329,0.22075,6.2293,17.099,0,0,0,0,0,0,0,0,0,0,0,0,0,0,0,0,
735,29.498,-14.893,55.696,-21.836,56.567,55.886,31.404,27.712,27.458,33.455,-11.625,-16.596,-4.0567,-13.706,0.1585,11.039,0,0,0,0,0,0,0,0,0,0,0,0,0,0,0,0,
736,30.524,-25.809,46.763,-1.8013,43.6,30.924,17.439,14.753,13.452,27.476,-8.6329,-34.592,-22.067,-24.632,-21.91,-13.02,0,0,0,0,0,0,0,0,0,0,0,0,0,0,0,0,
737,33.554,-30.723,31.83,-13.765,34.633,10.965,6.4755,-3.2063,31.449,9.4995,3.3598,-37.586,-17.076,-20.557,-31.978,-23.079,0,0,0,0,0,0,0,0,0,0,0,0,0,0,0,0,
738,-4.4179,-43.637,15.897,-6.7288,12.665,2.0031,-3.4891,-3.1656,-10.554,-4.4764,4.3514,-27.583,2.9143,-21.484,-24.046,-14.138,0,0,0,0,0,0,0,0,0,0,0,0,0,0,0,0,
739,-40.39,-65.55,-23.035,-3.6944,-24.303,-27.958,-33.455,-10.126,-46.558,-49.452,-25.657,-46.581,-15.096,-53.412,-26.115,-16.196,0,0,0,0,0,0,0,0,0,0,0,0,0,0,0,0,
740,-50.361,-82.461,-54.966,12.341,-47.269,-32.917,-62.42,-33.086,-31.56,-55.425,-44.665,-43.58,-16.107,-65.339,-44.185,-27.256,0,0,0,0,0,0,0,0,0,0,0,0,0,0,0,0,
741,-49.332,-73.372,-54.894,-18.622,-52.233,-18.878,-72.384,-34.044,-59.56,-44.398,-35.673,-36.577,-3.1173,-58.266,-53.256,-31.315,0,0,0,0,0,0,0,0,0,0,0,0,0,0,0,0,
742,-48.302,-44.283,-57.82,-57.583,-51.196,-31.837,-65.347,-51.0,-35.559,-35.369,-46.681,-73.573,-31.126,-77.193,-62.326,-41.374,0,0,0,0,0,0,0,0,0,0,0,0,0,0,0,0,
743,-30.268,-20.192,-47.744,-12.544,-41.157,-25.793,-68.308,-71.955,-36.558,-29.338,-63.686,-80.568,-34.134,-73.118,-69.394,-60.43,0,0,0,0,0,0,0,0,0,0,0,0,0,0,0,0,
744,-31.235,-18.102,-48.667,-32.504,-47.119,-38.748,-66.268,-60.91,-54.554,-38.307,-81.692,-97.563,-56.143,-85.044,-79.462,-82.484,0,0,0,0,0,0,0,0,0,0,0,0,0,0,0,0,
745,-36.2,-19.013,-47.591,-42.463,-36.082,-16.703,-72.229,-61.865,-48.55,-38.276,-75.696,-83.559,-53.151,-80.97,-86.529,-86.538,0,0,0,0,0,0,0,0,0,0,0,0,0,0,0,0,
746,-9.1642,7.0778,-6.5131,-7.4197,-1.0427,-37.657,-36.188,-26.819,-21.544,-5.2422,-55.699,-61.554,-24.159,-69.896,-78.597,-76.593,0,0,0,0,0,0,0,0,0,0,0,0,0,0,0,0,
747,-13.129,34.17,-6.433,51.622,1.9977,-36.611,-47.147,-19.772,-19.537,-7.2077,-61.702,-64.549,-35.166,-83.824,-72.665,-74.649,0,0,0,0,0,0,0,0,0,0,0,0,0,0,0,0,
748,1.9047,26.263,-3.3517,5.6632,7.039,-15.565,-43.106,-15.723,-13.53,3.8274,-50.706,-62.545,-42.172,-70.751,-73.735,-74.706,0,0,0,0,0,0,0,0,0,0,0,0,0,0,0,0,
749,1.9392,-1.6428,-3.2676,-45.291,2.0823,-7.5196,-24.064,-29.673,-8.5233,-6.1368,-21.709,-68.54,-46.178,-54.679,-72.804,-69.762,0,0,0,0,0,0,0,0,0,0,0,0,0,0,0,0,
750,10.974,9.4514,-2.1824,-38.243,8.1268,7.5266,-17.02,-39.621,3.4844,-0.10047,-39.712,-78.535,-59.184,-69.605,-70.874,-68.817,0,0,0,0,0,0,0,0,0,0,0,0,0,0,0,0,
751,23.01,-12.453,2.9033,6.803,12.171,24.574,-20.976,-40.57,-7.507,-8.0625,-34.717,-61.531,-49.192,-47.532,-57.944,-62.872,0,0,0,0,0,0,0,0,0,0,0,0,0,0,0,0,
752,17.047,-14.358,2.9904,0.85023,8.2161,19.624,-20.931,-31.518,-1.497,-23.023,-32.719,-50.524,-32.199,-44.458,-43.013,-46.926,0,0,0,0,0,0,0,0,0,0,0,0,0,0,0,0,
753,24.084,5.7369,-7.9226,-1.1016,2.2608,-37.329,-20.884,-35.465,-4.4851,-5.9828,-37.721,-56.518,-39.205,-52.383,-41.082,-37.979,0,0,0,0,0,0,0,0,0,0,0,0,0,0,0,0,
754,17.119,19.83,-15.838,-21.056,-11.698,-16.282,-31.838,-42.413,0.52352,1.056,-49.724,-61.511,-40.211,-65.31,-54.15,-36.029,0,0,0,0,0,0,0,0,0,0,0,0,0,0,0,0,
755,19.154,26.922,2.2465,-25.011,9.3432,-9.2358,-47.793,-36.362,6.533,-2.9058,-72.728,-64.506,-53.218,-78.237,-79.219,-50.08,0,0,0,0,0,0,0,0,0,0,0,0,0,0,0,0,
756,17.188,39.015,23.332,6.0341,32.385,-25.19,-26.748,-16.312,11.543,9.1327,-61.732,-51.502,-49.226,-62.165,-86.289,-64.132,0,0,0,0,0,0,0,0,0,0,0,0,0,0,0,0,
757,14.223,41.109,28.419,18.079,32.427,-5.1417,-15.704,-1.2615,11.551,33.171,-34.736,-42.499,-38.233,-45.092,-68.36,-60.185,0,0,0,0,0,0,0,0,0,0,0,0,0,0,0,0,
758,15.259,54.204,29.508,-5.8731,38.472,-2.0926,-4.6577,5.7902,22.562,29.21,-51.738,-44.495,-32.24,-48.019,-51.43,-50.237,0,0,0,0,0,0,0,0,0,0,0,0,0,0,0,0,
759,15.298,54.302,26.601,17.179,36.52,-7.0412,-8.6095,2.8447,19.574,26.252,-66.738,-50.49,-47.245,-43.945,-55.498,-63.286,0,0,0,0,0,0,0,0,0,0,0,0,0,0,0,0,
760,6.3365,49.401,20.695,40.232,25.568,-28.99,-1.5609,-2.0988,4.5861,7.2947,-66.736,-61.483,-63.249,-51.87,-68.565,-72.331,0,0,0,0,0,0,0,0,0,0,0,0,0,0,0,0,
761,-0.62299,47.503,7.7913,-8.7155,19.619,-35.937,-28.511,-17.04,1.6024,-9.6598,-67.733,-74.473,-73.252,-61.793,-79.63,-79.375,0,0,0,0,0,0,0,0,0,0,0,0,0,0,0,0,
762,-3.5825,35.604,20.888,-45.663,28.67,-21.883,-30.459,-14.979,-10.38,-2.6129,-43.73,-52.463,-46.253,-39.717,-65.695,-66.418,0,0,0,0,0,0,0,0,0,0,0,0,0,0,0,0,
763,-1.5428,41.705,18.985,1.3908,30.72,-30.83,-24.408,-11.918,-19.364,9.434,-34.728,-43.452,-34.255,-30.641,-41.761,-48.459,0,0,0,0,0,0,0,0,0,0,0,0,0,0,0,0,
764,14.498,68.805,29.083,12.445,42.771,-20.776,-17.356,5.1434,-0.34781,32.482,-17.724,-32.441,-27.256,-21.565,-25.827,-38.498,0,0,0,0,0,0,0,0,0,0,0,0,0,0,0,0,
765,16.537,88.904,42.181,3.4999,50.822,-0.72325,-13.303,13.205,22.669,27.53,-29.722,-17.431,-14.257,-24.49,-21.894,-34.539,0,0,0,0,0,0,0,0,0,0,0,0,0,0,0,0,
766,43.575,78.002,42.279,26.553,58.872,27.328,-7.2522,20.265,34.686,33.577,2.2787,-2.4239,4.7395,-12.416,-13.961,-20.581,0,0,0,0,0,0,0,0,0,0,0,0,0,0,0,0,
767,38.614,86.102,57.378,58.61,73.923,50.381,17.798,34.325,20.702,41.626,33.282,10.583,13.736,10.658,9.9718,8.3772,0,0,0,0,0,0,0,0,0,0,0,0,0,0,0,0,
768,66.653,103.2,87.477,84.668,98.974,78.437,39.85,48.387,47.718,68.675,73.286,28.591,23.734,45.732,46.906,44.336,0,0,0,0,0,0,0,0,0,0,0,0,0,0,0,0,
769,90.694,108.3,111.58,32.724,128.03,107.49,81.901,62.449,91.737,86.726,92.291,32.599,32.731,72.807,76.841,64.297,0,0,0,0,0,0,0,0,0,0,0,0,0,0,0,0,
770,92.736,86.404,112.68,-0.22012,119.08,87.546,95.954,60.512,100.76,95.777,53.298,9.6082,16.729,50.882,60.777,47.26,0,0,0,0,0,0,0,0,0,0,0,0,0,0,0,0,
771,40.778,43.506,60.786,-1.1611,70.138,19.606,67.009,25.577,33.779,41.83,13.307,-17.381,-13.272,11.958,3.7145,10.223,0,0,0,0,0,0,0,0,0,0,0,0,0,0,0,0,
772,11.822,20.608,24.893,-13.101,37.195,-10.336,33.065,5.6426,17.802,13.885,-25.683,-40.37,-42.272,-18.963,-49.347,-23.811,0,0,0,0,0,0,0,0,0,0,0,0,0,0,0,0,
