%OpenBCI Raw EXG Data
%Number of channels = 16
%Sample Rate = 125 Hz
%Board = OpenBCI_GUI$BoardCytonSerialDaisy
Sample Index,EXG Channel 0,EXG Channel 1,EXG Channel 2,EXG Channel 3,EXG Channel 4,EXG Channel 5,EXG Channel 6,EXG Channel 7,EXG Channel 8,EXG Channel 9,EXG Channel 10,EXG Channel 11,EXG Channel 12,EXG Channel 13,EXG Channel 14,EXG Channel 15,Accel Channel 0,Accel Channel 1,Accel Channel 2,Other,Other,Other,Other,Other,Other,Other,Analog Channel 0,Analog Channel 1,Analog Channel 2,Timestamp,Other,Timestamp (Formatted),Annotations
1,-0,-0,-0,-0,-0,-0,-0,-0,-0,-0,-0,-0,-0,-0,-0,-0,0,0,0,0,0,0,0,0,0,0,0,0,0,0,0,0,T0
2,20.837,-10.152,-8.354,1.3023,1.0898,-3.2493,5.684,10.824,-28.995,-7.9883,18.909,9.9995,16.057,11.961,0.01824,12.023,0,0,0,0,0,0,0,0,0,0,0,0,0,0,0,0,
3,-3.3269,-17.303,-0.70887,7.6059,-0.82041,-6.4989,21.367,45.647,-15.989,1.0243,18.818,9.9979,36.113,17.92,8.0378,29.047,0,0,0,0,0,0,0,0,0,0,0,0,0,0,0,0,
4,-24.491,-22.453,1.9362,3.9106,6.2697,7.2524,28.05,29.47,5.0148,12.036,23.728,13.997,57.171,35.882,24.059,46.073,0,0,0,0,0,0,0,0,0,0,0,0,0,0,0,0,
5,-13.653,-22.603,0.58294,-6.7851,19.36,14.004,29.733,-18.708,14.02,16.049,25.639,20.997,58.229,44.844,40.079,51.099,0,0,0,0,0,0,0,0,0,0,0,0,0,0,0,0,
6,-33.814,-41.753,-7.7705,-10.481,18.452,18.757,49.415,9.1145,11.025,23.063,28.549,21.996,50.286,51.805,50.099,40.124,0,0,0,0,0,0,0,0,0,0,0,0,0,0,0,0,
7,-21.975,-31.902,1.8767,-6.175,31.544,27.511,60.099,11.938,24.031,36.077,49.458,41.995,69.343,61.766,63.117,44.148,0,0,0,0,0,0,0,0,0,0,0,0,0,0,0,0,
8,-18.137,-27.051,6.5233,15.13,32.636,24.264,-20.218,16.764,34.035,37.09,53.367,55.992,73.399,60.726,74.135,56.17,0,0,0,0,0,0,0,0,0,0,0,0,0,0,0,0,
9,-3.2981,-17.201,16.169,50.434,37.728,41.017,27.463,73.587,25.039,26.102,66.275,26.99,66.453,44.685,75.153,55.192,0,0,0,0,0,0,0,0,0,0,0,0,0,0,0,0,
10,26.54,20.65,52.814,61.737,64.818,59.769,76.145,81.409,32.042,25.113,70.183,8.9868,68.507,27.643,78.171,51.214,0,0,0,0,0,0,0,0,0,0,0,0,0,0,0,0,
11,5.3763,6.4983,41.459,55.038,50.907,47.521,53.827,-4.7663,21.045,4.1234,52.092,-1.0162,41.562,-3.3981,67.189,27.238,0,0,0,0,0,0,0,0,0,0,0,0,0,0,0,0,
12,12.212,-0.65338,55.104,54.339,58.996,61.272,83.506,-18.943,13.048,-5.8651,62.999,17.981,55.616,7.5608,55.207,16.263,0,0,0,0,0,0,0,0,0,0,0,0,0,0,0,0,
13,40.048,19.195,64.749,64.64,87.085,80.023,91.187,30.879,47.051,30.147,81.906,58.979,84.671,56.521,60.225,42.289,0,0,0,0,0,0,0,0,0,0,0,0,0,0,0,0,
14,50.884,23.043,86.393,65.941,88.174,86.775,62.867,91.702,67.052,68.158,90.813,65.977,92.726,78.48,74.243,79.313,0,0,0,0,0,0,0,0,0,0,0,0,0,0,0,0,
15,36.72,20.892,82.037,70.241,96.263,93.527,117.55,108.53,68.054,88.168,97.719,56.972,88.779,86.436,78.258,87.333,0,0,0,0,0,0,0,0,0,0,0,0,0,0,0,0,
16,5.5541,20.741,52.681,58.541,79.35,74.277,57.227,42.348,55.053,81.177,66.624,39.966,62.83,71.392,65.272,70.351,0,0,0,0,0,0,0,0,0,0,0,0,0,0,0,0,
17,2.3878,15.588,30.326,40.839,51.437,56.027,41.908,34.172,28.054,64.185,41.53,47.96,49.882,74.348,46.285,56.37,0,0,0,0,0,0,0,0,0,0,0,0,0,0,0,0,
18,3.2228,3.4366,33.972,20.136,40.525,38.778,59.589,64.995,22.055,54.195,37.434,33.954,47.934,63.303,34.299,51.388,0,0,0,0,0,0,0,0,0,0,0,0,0,0,0,0,
19,3.0589,-21.715,27.618,-22.565,5.6126,5.5294,26.269,21.819,5.0558,16.204,28.339,12.948,29.985,34.258,30.312,43.407,0,0,0,0,0,0,0,0,0,0,0,0,0,0,0,0,
20,-4.1048,-7.8667,32.265,-4.2677,10.701,15.282,33.95,33.643,-6.9432,-0.78582,54.245,34.943,56.038,50.215,46.326,43.428,0,0,0,0,0,0,0,0,0,0,0,0,0,0,0,0,
21,16.729,2.9812,35.911,24.028,41.788,39.033,48.632,20.465,29.057,18.223,72.152,57.936,68.09,66.171,63.339,51.449,0,0,0,0,0,0,0,0,0,0,0,0,0,0,0,0,
22,2.5625,10.828,19.557,24.321,40.875,41.784,27.313,4.2876,33.057,23.231,43.058,55.93,49.141,57.126,63.353,50.471,0,0,0,0,0,0,0,0,0,0,0,0,0,0,0,0,
23,-6.6038,3.675,24.203,29.613,44.961,48.535,32.995,16.109,24.058,25.24,57.963,51.924,63.192,62.083,67.367,53.494,0,0,0,0,0,0,0,0,0,0,0,0,0,0,0,0,
24,13.23,17.522,46.85,30.905,59.048,57.286,59.675,32.93,33.059,32.25,52.868,36.921,66.243,60.04,73.381,54.518,0,0,0,0,0,0,0,0,0,0,0,0,0,0,0,0,
25,12.065,1.3709,43.498,17.199,55.136,58.039,1.3588,61.756,38.061,28.261,41.775,15.917,52.296,34.998,65.396,37.542,0,0,0,0,0,0,0,0,0,0,0,0,0,0,0,0,
26,-3.1001,0.21911,41.146,37.49,72.223,71.792,39.043,79.581,40.062,24.271,86.681,25.913,75.349,31.956,70.41,28.564,0,0,0,0,0,0,0,0,0,0,0,0,0,0,0,0,
27,12.734,12.068,28.794,34.78,60.31,59.544,49.725,12.404,56.063,16.28,92.586,24.908,73.4,19.911,70.424,20.586,0,0,0,0,0,0,0,0,0,0,0,0,0,0,0,0,
28,-4.4293,-6.082,15.444,18.071,34.398,37.298,35.408,-12.773,37.064,6.2889,79.493,31.902,57.451,37.866,64.437,18.607,0,0,0,0,0,0,0,0,0,0,0,0,0,0,0,0,
29,-32.594,-14.232,24.093,20.36,17.485,16.051,55.091,21.049,5.0626,11.297,69.398,55.896,54.501,68.822,67.448,38.627,0,0,0,0,0,0,0,0,0,0,0,0,0,0,0,0,
30,-48.757,-5.3808,31.743,25.649,4.5724,10.805,66.773,52.869,-16.937,27.305,59.302,34.889,31.551,54.776,59.459,32.646,0,0,0,0,0,0,0,0,0,0,0,0,0,0,0,0,
31,-38.918,-35.529,16.395,5.9372,0.66048,6.5599,6.4567,37.693,-30.935,16.314,17.208,28.882,6.6027,39.731,22.47,-8.3353,0,0,0,0,0,0,0,0,0,0,0,0,0,0,0,0,
32,-18.079,-31.676,27.049,13.226,18.75,21.316,43.143,60.522,-17.933,17.324,29.115,36.876,24.656,54.688,0.482,-29.315,0,0,0,0,0,0,0,0,0,0,0,0,0,0,0,0,
33,29.761,4.1779,68.703,32.516,49.839,55.073,67.83,67.347,34.069,34.335,55.022,47.871,48.708,67.645,8.4932,-24.294,0,0,0,0,0,0,0,0,0,0,0,0,0,0,0,0,
34,10.601,0.03246,44.357,7.8048,32.929,28.831,18.517,26.172,44.07,31.346,40.928,38.867,24.759,47.603,13.504,-16.271,0,0,0,0,0,0,0,0,0,0,0,0,0,0,0,0,
35,-16.559,-16.113,21.011,18.093,17.018,18.588,3.2016,47.001,19.07,4.357,12.832,32.864,9.8085,33.56,2.5143,-25.248,0,0,0,0,0,0,0,0,0,0,0,0,0,0,0,0,
36,18.28,10.741,43.665,32.38,38.106,41.345,57.885,42.827,26.068,21.366,-0.2635,24.86,10.857,30.518,-10.477,-41.227,0,0,0,0,0,0,0,0,0,0,0,0,0,0,0,0,
37,-11.881,10.594,38.321,23.665,50.194,47.102,27.57,39.652,27.067,30.376,19.641,20.855,28.906,35.475,-2.4678,-40.205,0,0,0,0,0,0,0,0,0,0,0,0,0,0,0,0,
38,-15.041,-10.552,28.977,-4.0505,45.283,46.86,27.254,22.478,15.068,27.388,13.546,6.8497,15.955,28.432,9.5423,-33.183,0,0,0,0,0,0,0,0,0,0,0,0,0,0,0,0,
39,5.8,8.3027,30.634,4.2345,55.372,57.619,37.941,76.306,5.0699,38.401,31.452,30.845,44.004,51.391,27.553,-14.158,0,0,0,0,0,0,0,0,0,0,0,0,0,0,0,0,
40,16.642,10.159,39.292,2.52,51.463,48.38,34.627,67.136,27.072,51.413,64.357,27.842,63.055,44.35,41.562,1.8653,0,0,0,0,0,0,0,0,0,0,0,0,0,0,0,0,
41,-12.513,-0.98223,16.951,-16.194,39.556,45.143,22.317,-12.034,34.074,24.427,67.264,16.839,57.106,22.309,41.571,-0.11116,0,0,0,0,0,0,0,0,0,0,0,0,0,0,0,0,
42,6.33,28.877,28.612,-12.909,63.648,65.906,59.007,18.797,39.077,17.441,84.171,34.835,86.156,42.268,52.582,22.914,0,0,0,0,0,0,0,0,0,0,0,0,0,0,0,0,
43,21.175,29.737,55.276,-26.624,60.741,60.671,50.699,23.628,51.082,28.456,78.081,31.832,74.207,41.227,60.596,42.941,0,0,0,0,0,0,0,0,0,0,0,0,0,0,0,0,
44,5.0227,8.5988,38.942,-41.338,32.836,37.438,17.394,29.46,20.088,14.471,34.993,22.83,29.262,23.188,39.611,18.969,0,0,0,0,0,0,0,0,0,0,0,0,0,0,0,0,
45,-7.1299,-0.53894,21.609,-25.053,32.932,33.206,34.09,75.292,-14.906,18.487,26.907,25.829,24.317,25.15,16.624,-8.0034,0,0,0,0,0,0,0,0,0,0,0,0,0,0,0,0,
46,-9.284,14.322,36.276,-4.7701,45.026,50.972,14.783,32.121,7.0982,30.5,23.817,-0.17468,16.368,2.1103,0.63511,-25.977,0,0,0,0,0,0,0,0,0,0,0,0,0,0,0,0,
47,1.5611,21.183,46.941,6.5118,50.118,54.738,36.476,39.954,17.1,14.514,38.724,-6.1784,21.418,2.0698,-1.3574,-33.951,0,0,0,0,0,0,0,0,0,0,0,0,0,0,0,0,
48,1.4053,21.043,55.606,22.792,72.21,75.504,70.17,83.789,34.101,31.528,68.631,12.817,56.465,35.028,18.649,-28.925,0,0,0,0,0,0,0,0,0,0,0,0,0,0,0,0,
49,32.249,44.903,72.273,18.07,88.301,94.27,44.861,26.621,74.102,62.541,33.539,16.813,45.514,32.987,28.655,-29.899,0,0,0,0,0,0,0,0,0,0,0,0,0,0,0,0,
50,23.094,19.763,39.941,-18.653,63.393,63.036,18.555,7.4528,49.105,35.555,15.445,18.809,19.563,16.946,18.662,-38.874,0,0,0,0,0,0,0,0,0,0,0,0,0,0,0,0,
51,7.9398,15.624,49.611,-11.376,66.485,69.804,32.252,54.286,38.109,33.57,23.354,7.8058,25.613,14.906,2.67,-47.848,0,0,0,0,0,0,0,0,0,0,0,0,0,0,0,0,
52,25.785,29.486,66.282,-5.0979,73.579,79.574,54.95,27.121,52.115,37.586,25.265,-3.1975,34.663,15.867,-1.3216,-47.822,0,0,0,0,0,0,0,0,0,0,0,0,0,0,0,0,
53,48.632,27.35,81.954,6.1804,89.674,89.345,70.648,24.957,66.12,45.603,50.175,17.8,67.713,40.828,19.687,-29.793,0,0,0,0,0,0,0,0,0,0,0,0,0,0,0,0,
54,41.48,33.214,76.627,10.456,78.769,83.118,36.344,10.793,79.125,51.621,58.084,9.7975,70.762,36.79,42.694,-16.765,0,0,0,0,0,0,0,0,0,0,0,0,0,0,0,0,
55,16.328,25.079,55.301,19.732,55.865,57.891,60.043,24.631,48.13,28.639,71.994,-6.206,50.812,11.751,43.7,-32.737,0,0,0,0,0,0,0,0,0,0,0,0,0,0,0,0,
56,26.177,27.946,53.977,17.006,41.962,40.665,76.742,45.469,11.136,8.6566,57.904,-27.21,19.862,-12.287,19.705,-65.709,0,0,0,0,0,0,0,0,0,0,0,0,0,0,0,0,
57,29.028,15.814,54.655,14.28,42.059,51.441,54.442,26.308,-17.857,3.6752,4.816,-31.213,-6.088,-19.325,-21.289,-92.681,0,0,0,0,0,0,0,0,0,0,0,0,0,0,0,0,
58,33.88,42.683,58.333,42.553,69.156,72.217,-21.858,20.145,-4.8505,16.694,-10.273,-32.216,-17.038,-17.362,-48.282,-87.651,0,0,0,0,0,0,0,0,0,0,0,0,0,0,0,0,
59,55.73,61.552,46.011,53.825,80.253,86.994,2.8437,1.9834,2.1561,0.7137,-13.363,-43.218,-26.987,-33.399,-57.276,-85.62,0,0,0,0,0,0,0,0,0,0,0,0,0,0,0,0,
60,61.582,65.423,62.691,40.097,81.351,88.772,26.546,37.824,16.163,-4.2668,-7.4512,-35.219,-25.936,-36.435,-47.27,-81.588,0,0,0,0,0,0,0,0,0,0,0,0,0,0,0,0,
61,29.434,26.294,53.372,24.367,54.449,53.551,9.2467,-4.3349,9.1686,-12.248,-22.541,-36.221,-52.887,-47.472,-44.266,-88.558,0,0,0,0,0,0,0,0,0,0,0,0,0,0,0,0,
62,18.286,10.166,35.054,17.635,40.547,49.331,-32.051,4.5062,-10.826,-27.229,-39.631,-30.223,-77.839,-51.51,-61.261,-94.527,0,0,0,0,0,0,0,0,0,0,0,0,0,0,0,0,
63,15.139,32.038,37.736,28.903,68.646,75.112,-6.3484,55.349,-10.819,-5.2086,-22.72,1.7764,-35.791,-7.5458,-51.256,-66.496,0,0,0,0,0,0,0,0,0,0,0,0,0,0,0,0,
64,43.992,44.91,61.42,44.169,89.744,92.893,55.355,43.194,24.186,33.812,11.192,15.776,5.258,22.42,-11.251,-29.464,0,0,0,0,0,0,0,0,0,0,0,0,0,0,0,0,
65,58.846,56.783,88.105,46.435,94.842,103.67,68.058,33.04,61.192,51.832,63.103,52.776,49.306,61.385,44.753,10.568,0,0,0,0,0,0,0,0,0,0,0,0,0,0,0,0,
66,64.702,54.658,106.79,28.701,100.94,103.46,109.76,89.884,87.196,85.853,112.01,91.778,97.354,106.35,102.76,62.601,0,0,0,0,0,0,0,0,0,0,0,0,0,0,0,0,
67,69.557,69.533,128.48,31.965,113.04,114.24,102.47,101.73,117.2,108.87,145.93,103.78,122.4,116.32,142.76,107.63,0,0,0,0,0,0,0,0,0,0,0,0,0,0,0,0,
68,77.414,61.407,111.17,12.227,101.14,102.03,123.17,43.57,127.21,91.893,137.84,84.778,110.45,95.284,143.77,115.67,0,0,0,0,0,0,0,0,0,0,0,0,0,0,0,0,
69,44.272,37.283,73.862,6.4891,78.239,73.811,97.882,53.412,95.214,64.915,83.75,63.777,70.497,73.248,102.77,89.704,0,0,0,0,0,0,0,0,0,0,0,0,0,0,0,0,
70,42.131,35.162,62.556,-15.248,53.341,54.6,30.59,6.2586,41.221,40.936,42.663,34.777,29.545,38.214,52.773,41.737,0,0,0,0,0,0,0,0,0,0,0,0,0,0,0,0,
71,9.9908,6.042,52.25,-47.987,29.442,28.388,28.298,-23.892,9.2272,8.9577,23.575,8.7776,8.5913,9.18,20.775,2.7684,0,0,0,0,0,0,0,0,0,0,0,0,0,0,0,0,
72,6.8506,8.9218,54.945,-47.727,29.543,27.177,28.008,-13.044,-20.767,-10.021,-21.513,-22.224,-29.364,-21.856,-3.2258,-27.201,0,0,0,0,0,0,0,0,0,0,0,0,0,0,0,0,
73,12.71,6.8016,38.641,-57.469,16.644,18.967,-15.281,-31.195,-32.762,-25,-38.602,-46.225,-53.319,-49.891,-24.227,-55.17,0,0,0,0,0,0,0,0,0,0,0,0,0,0,0,0,
74,19.571,-8.3179,38.339,-52.211,8.7452,5.7582,6.429,1.6555,-33.757,-38.977,-24.69,-24.226,-43.274,-39.926,-32.229,-64.14,0,0,0,0,0,0,0,0,0,0,0,0,0,0,0,0,
75,-11.566,-6.436,40.038,-44.954,0.84764,-1.4489,4.1397,20.505,-24.751,-34.955,-21.779,-11.228,-53.23,-41.962,-33.232,-58.11,0,0,0,0,0,0,0,0,0,0,0,0,0,0,0,0,
76,0.29639,-5.5518,37.739,-41.697,6.9504,9.3455,18.853,17.355,-10.745,-25.931,12.132,2.77,-16.185,-13.996,-11.234,-22.08,0,0,0,0,0,0,0,0,0,0,0,0,0,0,0,0,
77,-4.8412,-8.6673,24.442,-54.442,3.0536,-1.8592,14.566,-32.795,12.263,-18.907,21.045,-12.232,-1.1403,-12.031,9.7644,-0.048,0,0,0,0,0,0,0,0,0,0,0,0,0,0,0,0,
78,-16.978,-13.782,24.145,-53.188,-3.8421,-1.0621,37.28,0.05763,1.2699,-19.882,23.959,9.7685,5.9051,12.937,22.763,13.984,0,0,0,0,0,0,0,0,0,0,0,0,0,0,0,0,
79,-1.116,-15.897,24.848,-62.937,-1.7386,-3.2645,20.995,0.91196,8.2766,8.1425,35.871,23.768,28.95,36.904,36.759,21.014,0,0,0,0,0,0,0,0,0,0,0,0,0,0,0,0,
80,-41.253,-33.012,-0.44717,-76.687,-21.635,-23.466,14.71,3.7653,5.2834,-3.8322,17.783,36.768,23.994,50.871,43.754,27.044,0,0,0,0,0,0,0,0,0,0,0,0,0,0,0,0,
81,-49.39,-35.125,0.2593,-73.439,-20.531,-17.667,29.425,24.619,4.2902,8.1937,24.695,42.767,37.038,60.838,49.748,28.074,0,0,0,0,0,0,0,0,0,0,0,0,0,0,0,0,
82,-28.527,-25.238,2.9678,-60.192,-20.428,-23.867,22.141,12.474,2.2966,9.2188,53.607,42.765,59.081,58.805,68.742,33.104,0,0,0,0,0,0,0,0,0,0,0,0,0,0,0,0,
83,-4.6616,-12.35,-4.321,-45.946,-9.324,-7.0668,37.86,54.33,0.30311,13.244,59.519,40.764,64.124,57.771,83.735,36.133,0,0,0,0,0,0,0,0,0,0,0,0,0,0,0,0,
84,3.2029,11.538,12.391,-39.701,9.7788,17.734,26.579,59.185,-2.6895,36.267,64.432,48.762,53.167,60.736,83.727,35.162,0,0,0,0,0,0,0,0,0,0,0,0,0,0,0,0,
85,28.068,29.428,35.105,-42.458,35.882,37.536,-0.70096,18.041,-14.682,43.291,67.346,54.759,39.21,55.701,82.719,30.19,0,0,0,0,0,0,0,0,0,0,0,0,0,0,0,0,
86,40.936,40.319,40.821,-34.216,44.985,54.339,20.021,55.897,-18.675,46.316,27.259,46.756,28.252,53.666,67.711,16.219,0,0,0,0,0,0,0,0,0,0,0,0,0,0,0,0,
87,55.806,47.212,53.539,-28.973,59.091,65.145,21.745,43.754,16.332,57.341,43.174,54.755,53.294,68.634,57.703,5.2497,0,0,0,0,0,0,0,0,0,0,0,0,0,0,0,0,
88,37.675,29.107,40.259,-28.733,51.197,51.952,20.468,15.614,44.339,58.366,50.087,51.754,58.335,65.601,59.694,6.2801,0,0,0,0,0,0,0,0,0,0,0,0,0,0,0,0,
89,28.544,43.003,40.98,-6.4938,56.303,63.761,23.192,38.473,56.346,60.392,32.001,39.753,38.377,50.569,47.685,-2.689,0,0,0,0,0,0,0,0,0,0,0,0,0,0,0,0,
90,22.414,26.899,39.701,-23.256,48.41,51.572,27.918,57.334,46.354,52.42,30.917,69.753,38.419,66.538,36.678,-0.65611,0,0,0,0,0,0,0,0,0,0,0,0,0,0,0,0,
91,29.287,30.798,43.425,-15.018,53.519,60.384,22.645,82.198,39.363,65.449,42.833,70.754,53.462,78.51,40.671,5.3791,0,0,0,0,0,0,0,0,0,0,0,0,0,0,0,0,
92,60.16,56.697,57.152,7.2191,62.627,70.198,46.374,97.065,57.373,71.479,50.749,55.756,54.505,65.481,50.662,6.4144,0,0,0,0,0,0,0,0,0,0,0,0,0,0,0,0,
93,57.034,56.597,70.881,-7.5458,50.736,50.013,63.103,51.93,61.383,41.509,78.663,45.756,62.546,55.45,55.651,-4.5532,0,0,0,0,0,0,0,0,0,0,0,0,0,0,0,0,
94,25.907,52.498,44.61,-17.313,38.844,45.828,16.832,20.793,53.392,27.537,49.574,46.755,39.585,49.417,45.637,-16.524,0,0,0,0,0,0,0,0,0,0,0,0,0,0,0,0,
95,36.781,42.401,36.34,-16.081,40.953,46.645,43.562,28.659,33.4,46.566,48.485,46.752,36.622,55.383,41.62,-14.497,0,0,0,0,0,0,0,0,0,0,0,0,0,0,0,0,
96,32.656,40.302,42.071,-4.8521,41.061,46.461,71.291,45.525,23.408,53.594,50.396,72.75,48.66,76.35,49.603,-2.4689,0,0,0,0,0,0,0,0,0,0,0,0,0,0,0,0,
97,51.531,65.205,61.803,27.375,74.168,89.279,35.021,95.392,37.415,89.621,51.31,87.749,57.698,91.318,56.587,6.5613,0,0,0,0,0,0,0,0,0,0,0,0,0,0,0,0,
98,102.41,92.11,86.54,39.6,107.28,115.1,28.754,95.259,41.424,112.65,61.223,80.748,60.736,91.286,56.571,10.593,0,0,0,0,0,0,0,0,0,0,0,0,0,0,0,0,
99,66.286,83.016,81.278,43.824,101.39,111.92,49.487,64.128,32.432,104.68,45.137,71.747,49.773,82.254,47.554,2.6255,0,0,0,0,0,0,0,0,0,0,0,0,0,0,0,0,
100,89.164,107.92,91.018,64.048,119.5,132.74,72.221,80,61.44,111.71,70.051,82.748,77.811,95.224,54.537,12.658,0,0,0,0,0,0,0,0,0,0,0,0,0,0,0,0,
101,105.04,110.83,107.76,39.27,128.61,134.57,84.956,79.872,97.448,122.74,97.964,86.748,95.846,108.19,74.519,46.691,0,0,0,0,0,0,0,0,0,0,0,0,0,0,0,0,
102,82.923,83.74,88.501,19.49,104.72,115.39,88.693,41.742,104.46,110.77,61.878,70.746,80.883,92.163,77.501,63.724,0,0,0,0,0,0,0,0,0,0,0,0,0,0,0,0,
103,89.804,83.651,104.25,30.708,113.83,123.22,87.432,85.612,109.47,102.81,93.792,108.74,116.92,125.13,92.482,85.758,0,0,0,0,0,0,0,0,0,0,0,0,0,0,0,0,
104,66.686,78.562,73.994,35.923,106.94,109.05,55.169,81.484,123.47,118.84,92.706,96.742,105.95,110.1,95.462,93.79,0,0,0,0,0,0,0,0,0,0,0,0,0,0,0,0,
105,47.568,69.473,44.742,28.137,79.052,87.879,42.908,52.357,88.482,81.868,54.62,69.741,69.988,74.071,69.441,68.823,0,0,0,0,0,0,0,0,0,0,0,0,0,0,0,0,
106,72.45,70.385,78.492,20.35,88.163,91.709,68.648,23.232,81.49,70.901,72.535,86.74,76.022,79.041,50.418,40.855,0,0,0,0,0,0,0,0,0,0,0,0,0,0,0,0,
107,59.333,85.298,74.244,17.561,100.27,105.54,64.391,56.109,91.498,82.933,89.45,97.74,93.056,98.011,59.396,42.888,0,0,0,0,0,0,0,0,0,0,0,0,0,0,0,0,
108,72.217,91.213,66.998,21.769,105.39,113.37,65.135,89.985,100.51,112.96,94.364,91.738,98.089,104.98,67.373,56.92,0,0,0,0,0,0,0,0,0,0,0,0,0,0,0,0,
109,73.101,94.127,67.753,24.974,109.5,110.21,42.878,90.862,104.52,119,89.278,93.737,96.122,102.95,68.349,71.953,0,0,0,0,0,0,0,0,0,0,0,0,0,0,0,0,
110,80.986,101.04,66.509,22.18,98.609,107.04,91.622,41.74,86.523,112.03,69.192,84.736,68.153,91.92,63.324,75.986,0,0,0,0,0,0,0,0,0,0,0,0,0,0,0,0,
111,56.87,57.96,61.265,-1.6166,76.719,83.877,36.366,30.62,48.528,100.06,47.106,80.735,45.183,87.888,48.297,65.017,0,0,0,0,0,0,0,0,0,0,0,0,0,0,0,0,
112,58.756,54.877,60.024,24.586,98.829,103.71,21.11,75.502,48.533,108.09,45.021,77.734,56.212,91.857,29.27,43.05,0,0,0,0,0,0,0,0,0,0,0,0,0,0,0,0,
113,73.643,74.796,68.786,33.786,102.94,113.55,56.856,53.383,76.539,112.12,33.935,43.732,53.243,64.827,10.243,13.083,0,0,0,0,0,0,0,0,0,0,0,0,0,0,0,0,
114,59.53,74.715,71.549,44.983,97.048,102.39,66.604,56.264,87.544,92.155,50.849,53.731,79.272,70.796,14.214,9.1151,0,0,0,0,0,0,0,0,0,0,0,0,0,0,0,0,
115,73.416,82.635,86.314,52.178,108.16,115.22,81.352,76.146,112.55,101.19,65.763,71.728,85.301,80.765,32.185,21.147,0,0,0,0,0,0,0,0,0,0,0,0,0,0,0,0,
116,40.306,63.557,64.083,35.372,83.269,92.065,68.102,86.029,112.56,101.22,48.677,55.725,47.329,59.734,23.155,10.178,0,0,0,0,0,0,0,0,0,0,0,0,0,0,0,0,
117,0.19612,29.481,10.852,10.566,48.382,52.909,25.853,64.914,76.564,76.253,15.592,51.723,31.358,48.704,-0.87579,-6.7899,0,0,0,0,0,0,0,0,0,0,0,0,0,0,0,0,
118,25.085,31.405,32.624,24.757,39.494,53.753,54.606,28.8,60.572,61.287,10.507,58.722,31.387,52.675,-7.9073,-3.7566,0,0,0,0,0,0,0,0,0,0,0,0,0,0,0,0,
119,29.975,38.33,62.397,13.947,37.607,48.599,25.359,31.685,68.58,48.321,39.422,53.721,51.416,54.646,16.061,17.277,0,0,0,0,0,0,0,0,0,0,0,0,0,0,0,0,
120,35.866,22.255,48.172,13.135,30.72,37.446,11.111,39.572,67.588,37.357,52.336,44.72,51.443,48.618,40.028,25.31,0,0,0,0,0,0,0,0,0,0,0,0,0,0,0,0,
121,24.758,24.182,40.95,30.322,11.833,24.294,30.866,36.461,53.596,28.392,45.251,45.719,33.471,38.591,41.994,16.343,0,0,0,0,0,0,0,0,0,0,0,0,0,0,0,0,
122,-7.3492,10.108,17.729,23.507,-0.05388,7.144,21.623,52.351,28.604,31.428,43.165,23.719,19.498,21.563,22.96,-7.6222,0,0,0,0,0,0,0,0,0,0,0,0,0,0,0,0,
123,12.545,6.0376,23.511,11.69,1.0607,10.996,4.3831,27.241,16.612,36.463,9.0799,17.719,-2.4761,18.535,-3.0749,-20.587,0,0,0,0,0,0,0,0,0,0,0,0,0,0,0,0,
124,11.441,23.969,28.296,20.872,2.1771,16.851,12.144,40.134,-2.3783,41.5,-9.0053,27.717,-5.4507,23.508,-15.109,-15.552,0,0,0,0,0,0,0,0,0,0,0,0,0,0,0,0,
125,23.338,22.902,24.083,9.0525,-9.7064,-1.2922,11.906,18.028,-20.369,29.537,-1.088,23.716,-3.4244,14.481,-12.144,-2.5178,0,0,0,0,0,0,0,0,0,0,0,0,0,0,0,0,
126,20.236,18.836,14.872,3.2315,-15.589,-3.4341,29.667,-8.0774,-22.36,2.5747,6.8297,21.715,3.6021,6.4543,-7.1789,-0.48402,0,0,0,0,0,0,0,0,0,0,0,0,0,0,0,0,
127,27.134,27.772,41.663,17.409,-2.4725,9.4254,4.431,23.822,11.65,18.613,13.747,37.715,11.628,19.428,-2.2149,2.5499,0,0,0,0,0,0,0,0,0,0,0,0,0,0,0,0,
128,24.031,10.707,15.455,15.584,-21.357,-12.715,-26.805,44.719,1.66,20.652,-3.335,34.714,-13.347,13.401,-10.251,7.5847,0,0,0,0,0,0,0,0,0,0,0,0,0,0,0,0,
129,-12.069,7.6438,-18.75,24.757,-39.239,-22.853,-18.036,26.615,-18.329,11.691,-22.416,24.713,-31.321,4.3755,-26.287,8.62,0,0,0,0,0,0,0,0,0,0,0,0,0,0,0,0,
130,0.83167,8.5812,-13.952,15.928,-35.123,-23.991,-15.268,-7.4875,-24.318,-1.2705,-15.497,25.712,-22.296,7.3494,-28.324,23.655,0,0,0,0,0,0,0,0,0,0,0,0,0,0,0,0,
131,23.733,25.519,35.848,12.096,-19.007,-9.1281,50.502,16.41,8.6912,-8.2333,38.423,23.711,16.728,16.323,-9.3604,38.691,0,0,0,0,0,0,0,0,0,0,0,0,0,0,0,0,
132,18.635,20.458,34.65,5.2622,-30.891,-20.264,17.272,-4.6911,23.701,-14.195,23.342,16.709,8.7509,7.2962,5.6017,38.726,0,0,0,0,0,0,0,0,0,0,0,0,0,0,0,0,
133,28.538,23.399,22.453,19.427,-14.774,-9.3971,16.044,-16.791,1.7108,-21.158,26.261,22.708,19.773,16.269,19.562,37.76,0,0,0,0,0,0,0,0,0,0,0,0,0,0,0,0,
134,50.442,42.341,56.258,48.59,11.343,19.471,54.815,9.1116,19.72,-4.1196,45.179,2.706,35.795,7.2422,27.52,37.794,0,0,0,0,0,0,0,0,0,0,0,0,0,0,0,0,
135,46.347,41.285,50.067,56.751,18.46,25.34,47.589,32.015,39.729,14.919,30.099,-2.2948,24.816,1.2162,16.477,30.827,0,0,0,0,0,0,0,0,0,0,0,0,0,0,0,0,
136,19.253,18.229,15.877,46.908,12.576,17.21,-11.637,45.918,21.738,19.958,23.017,18.704,15.836,11.19,7.4347,29.862,0,0,0,0,0,0,0,0,0,0,0,0,0,0,0,0,
137,57.159,37.174,36.687,43.065,13.693,23.082,15.136,16.824,8.7447,27.996,23.934,-0.29782,2.8547,2.1631,-0.60866,20.897,0,0,0,0,0,0,0,0,0,0,0,0,0,0,0,0,
138,38.065,36.121,40.499,24.221,11.81,15.955,23.911,-12.27,-0.24927,14.035,18.852,-6.2998,1.8731,5.1364,-3.6537,3.9316,0,0,0,0,0,0,0,0,0,0,0,0,0,0,0,0,
139,45.971,48.066,47.311,43.374,24.925,29.828,14.685,12.635,12.755,19.072,15.769,13.697,9.8904,19.109,0.29985,6.9648,0,0,0,0,0,0,0,0,0,0,0,0,0,0,0,0,
140,54.879,47.014,39.128,44.525,19.041,28.704,19.461,-15.458,15.762,18.111,16.687,-3.3072,7.9081,2.0818,-6.7469,10.997,0,0,0,0,0,0,0,0,0,0,0,0,0,0,0,0,
141,54.787,27.963,34.945,25.672,15.158,17.581,23.239,-9.5513,21.769,8.1496,4.6048,-11.31,5.9261,-6.9447,-17.794,4.0306,0,0,0,0,0,0,0,0,0,0,0,0,0,0,0,0,
142,45.694,18.912,38.764,25.817,1.2737,8.4589,23.018,16.357,18.776,9.1887,-1.4771,9.687,2.9437,2.0286,-23.842,-4.9352,0,0,0,0,0,0,0,0,0,0,0,0,0,0,0,0,
143,22.603,15.862,23.585,28.96,-5.6105,1.338,31.798,-17.733,18.783,7.228,3.4404,16.683,2.9605,4.0017,-19.891,-2.9007,0,0,0,0,0,0,0,0,0,0,0,0,0,0,0,0,
144,22.515,7.814,11.409,19.102,-12.494,-8.7813,3.5789,-9.8225,1.7909,-5.7324,1.3577,6.6792,-11.023,-4.0248,-17.942,8.1344,0,0,0,0,0,0,0,0,0,0,0,0,0,0,0,0,
145,17.426,13.767,3.2341,7.2415,-22.379,-8.8995,-1.6395,8.0898,-15.202,-17.693,4.2749,4.6761,-9.0071,-5.0506,-15.994,11.17,0,0,0,0,0,0,0,0,0,0,0,0,0,0,0,0,
146,27.337,32.721,10.061,1.3794,-7.2629,0.98352,5.1436,16.003,4.8034,-4.653,1.1927,18.673,8.0082,12.924,-9.0461,28.206,0,0,0,0,0,0,0,0,0,0,0,0,0,0,0,0,
147,25.248,23.675,2.8889,1.5143,-14.148,-4.1332,-22.073,-7.0845,9.8093,0.38667,-20.89,-6.3296,-13.977,0.89806,-10.099,35.244,0,0,0,0,0,0,0,0,0,0,0,0,0,0,0,0,
148,22.159,9.6288,-17.282,12.647,-24.035,-10.249,-14.289,2.8284,-24.186,-12.575,-24.973,-15.333,-29.964,-10.128,-20.152,22.281,0,0,0,0,0,0,0,0,0,0,0,0,0,0,0,0,
149,30.072,22.584,-18.451,13.777,-3.9209,6.6359,-9.5045,17.743,-33.182,2.4637,-11.056,8.664,-20.951,6.8456,-27.207,13.317,0,0,0,0,0,0,0,0,0,0,0,0,0,0,0,0,
150,9.9855,23.541,-13.617,16.906,-14.806,0.52368,-9.7171,-23.343,-23.177,-5.4967,-19.138,2.6607,-35.938,-8.1802,-43.262,-7.6467,0,0,0,0,0,0,0,0,0,0,0,0,0,0,0,0,
151,20.9,16.5,-4.7786,36.034,-7.6902,8.4141,5.0717,9.5753,-21.172,-5.456,-20.22,15.658,-16.925,11.795,-45.317,-17.611,0,0,0,0,0,0,0,0,0,0,0,0,0,0,0,0,
152,11.815,8.4584,-13.94,31.159,-10.575,-1.6947,-54.141,-24.505,0.83328,8.5853,-41.302,-17.346,-35.913,-14.23,-48.374,-25.574,0,0,0,0,0,0,0,0,0,0,0,0,0,0,0,0,
153,15.73,22.417,-4.1016,49.283,-8.461,9.1967,0.64698,18.414,-22.163,-8.374,-26.387,-1.349,-29.904,-8.2551,-50.432,-37.538,0,0,0,0,0,0,0,0,0,0,0,0,0,0,0,0,
154,35.645,37.378,19.738,59.407,2.6529,13.09,11.438,-8.6648,-4.1594,10.668,3.5288,-3.3521,-8.8944,-3.2805,-39.492,-37.503,0,0,0,0,0,0,0,0,0,0,0,0,0,0,0,0,
155,4.56,11.339,6.5798,40.528,-28.234,-17.016,-5.7725,-38.743,-0.15657,-12.291,-2.5554,-26.355,-11.886,-28.305,-31.553,-29.468,0,0,0,0,0,0,0,0,0,0,0,0,0,0,0,0,
156,14.475,18.3,1.4239,46.647,-30.121,-14.122,9.0175,-15.821,-8.1539,-40.251,-8.641,-40.36,-15.878,-42.332,-32.616,-27.434,0,0,0,0,0,0,0,0,0,0,0,0,0,0,0,0,
157,33.39,28.262,0.26918,63.764,-10.009,-0.22591,4.8102,23.103,-11.152,-43.211,0.27288,-35.365,-17.872,-37.358,-30.68,-27.399,0,0,0,0,0,0,0,0,0,0,0,0,0,0,0,0,
158,14.306,30.225,6.116,51.877,-10.897,1.6705,-11.397,5.0252,-11.15,-35.172,-13.813,-41.369,-32.866,-41.384,-36.745,-27.364,0,0,0,0,0,0,0,0,0,0,0,0,0,0,0,0,
159,25.222,25.188,19.965,51.989,-9.7868,0.56721,5.3963,-20.051,-10.15,-31.132,-20.9,-47.374,-27.863,-47.41,-54.811,-36.329,0,0,0,0,0,0,0,0,0,0,0,0,0,0,0,0,
160,39.138,6.1506,21.815,32.098,-21.677,-16.536,20.19,-66.126,-12.15,-45.092,-49.987,-65.379,-49.86,-73.438,-72.878,-54.293,0,0,0,0,0,0,0,0,0,0,0,0,0,0,0,0,
161,16.057,14.116,9.6676,21.205,-34.567,-22.636,-18.013,-70.2,-44.15,-66.053,-67.073,-56.384,-64.856,-68.464,-83.944,-52.257,0,0,0,0,0,0,0,0,0,0,0,0,0,0,0,0,
162,20.976,21.083,16.522,35.31,-8.4565,-1.7351,-25.215,-21.274,-37.15,-46.014,-37.158,-35.391,-47.854,-41.492,-72.012,-38.222,0,0,0,0,0,0,0,0,0,0,0,0,0,0,0,0,
163,31.894,24.05,11.377,35.413,-5.346,0.16751,13.583,-4.3479,-18.151,-23.976,-31.245,-43.398,-39.852,-37.52,-57.081,-32.187,0,0,0,0,0,0,0,0,0,0,0,0,0,0,0,0,
164,14.812,20.018,7.2344,27.514,-10.236,-0.92867,-2.62,24.581,-8.1526,-14.938,-40.333,-37.406,-37.851,-22.549,-55.152,-28.154,0,0,0,0,0,0,0,0,0,0,0,0,0,0,0,0,
165,23.733,32.987,24.094,43.611,11.873,16.976,18.18,67.511,-2.1537,14.101,-10.419,-6.4149,-4.851,15.421,-42.223,-0.1214,0,0,0,0,0,0,0,0,0,0,0,0,0,0,0,0,
166,11.654,25.954,21.956,21.705,-4.0185,3.8805,7.9808,25.439,20.845,12.14,-8.506,-14.423,-7.8514,-5.607,-38.295,12.912,0,0,0,0,0,0,0,0,0,0,0,0,0,0,0,0,
167,-12.424,-12.075,-11.179,-5.2031,-42.91,-38.212,-14.217,-63.633,-24.156,-30.821,-51.593,-26.43,-48.853,-29.635,-61.369,-5.0538,0,0,0,0,0,0,0,0,0,0,0,0,0,0,0,0,
168,-32.502,-24.103,-23.311,-14.112,-54.799,-51.302,-37.413,-37.701,-59.156,-55.781,-53.679,-39.438,-51.854,-37.662,-86.442,-26.018,0,0,0,0,0,0,0,0,0,0,0,0,0,0,0,0,
169,-2.5772,-1.1286,5.5598,3.9765,-34.688,-23.39,-33.605,1.2321,-36.155,-45.74,-38.763,-38.445,-41.855,-38.687,-88.513,-28.98,0,0,0,0,0,0,0,0,0,0,0,0,0,0,0,0,
170,4.3489,21.847,12.433,27.063,-16.577,-10.476,-22.794,-1.8322,-29.152,-32.697,-52.845,-37.451,-45.854,-47.712,-74.583,-17.94,0,0,0,0,0,0,0,0,0,0,0,0,0,0,0,0,
171,-9.7253,17.822,9.3076,24.147,-15.467,-7.5616,2.0171,-6.8961,-39.149,-38.655,-29.927,-35.457,-37.853,-45.736,-45.654,0.09956,0,0,0,0,0,0,0,0,0,0,0,0,0,0,0,0,
172,14.202,23.798,29.184,-1.7711,-15.358,-5.6467,13.829,3.0389,-36.148,-34.614,-41.01,-51.464,-49.853,-46.762,-36.728,0.13789,0,0,0,0,0,0,0,0,0,0,0,0,0,0,0,0,
173,-3.8733,3.7744,9.0614,-26.691,-27.25,-24.732,-29.36,6.9754,-52.149,-36.574,-59.095,-58.472,-62.856,-47.79,-49.805,-16.826,0,0,0,0,0,0,0,0,0,0,0,0,0,0,0,0,
174,3.0513,13.75,8.9399,-23.614,-31.145,-24.817,-12.547,-33.09,-34.152,-33.537,-50.181,-52.481,-60.861,-49.818,-63.883,-18.791,0,0,0,0,0,0,0,0,0,0,0,0,0,0,0,0,
175,-3.0235,-5.2736,-7.1802,-32.54,-47.04,-40.902,-7.7355,-57.155,-37.155,-51.5,-50.268,-51.491,-63.867,-60.847,-71.964,-8.7561,0,0,0,0,0,0,0,0,0,0,0,0,0,0,0,0,
176,-16.1,-22.299,12.699,-31.468,-38.936,-36.986,13.075,-51.219,-36.159,-52.463,-30.355,-51.502,-44.875,-68.877,-66.046,-3.7229,0,0,0,0,0,0,0,0,0,0,0,0,0,0,0,0,
177,-21.176,-20.323,25.58,-42.399,-48.833,-44.068,-0.11106,-44.28,-24.163,-64.426,-27.443,-52.513,-52.884,-68.906,-65.13,-8.6905,0,0,0,0,0,0,0,0,0,0,0,0,0,0,0,0,
178,-15.253,-30.346,12.463,-52.33,-54.731,-55.151,-22.295,-28.339,-38.167,-61.388,-30.53,-20.524,-42.892,-35.936,-57.214,-2.6575,0,0,0,0,0,0,0,0,0,0,0,0,0,0,0,0,
179,-13.328,-26.369,10.347,-62.266,-49.629,-53.232,-8.4799,-39.401,-38.171,-49.35,-28.617,-37.537,-32.901,-35.968,-45.298,3.3758,0,0,0,0,0,0,0,0,0,0,0,0,0,0,0,0,
180,-28.403,-24.39,-4.7668,-58.203,-49.528,-48.312,-18.663,1.5374,-34.177,-50.314,-43.705,-37.549,-43.911,-36.998,-43.382,6.4094,0,0,0,0,0,0,0,0,0,0,0,0,0,0,0,0,
181,-1.478,-3.4116,-13.88,-19.143,-17.427,-18.39,-26.846,38.478,-34.183,-23.278,-46.792,-21.56,-34.92,-21.029,-42.466,19.444,0,0,0,0,0,0,0,0,0,0,0,0,0,0,0,0,
182,-1.5517,7.5677,-8.9904,-18.085,-11.326,-9.4676,-8.0282,-41.581,-20.189,-13.241,-53.879,-52.571,-48.931,-46.058,-51.552,8.4787,0,0,0,0,0,0,0,0,0,0,0,0,0,0,0,0,
183,-17.625,3.5482,-17.099,-18.028,-17.225,-14.543,-11.207,-49.639,-41.195,-33.204,-55.966,-39.583,-55.943,-47.088,-57.639,-6.4876,0,0,0,0,0,0,0,0,0,0,0,0,0,0,0,0,
184,-19.697,-0.47041,-18.206,-13.974,-16.125,-13.618,-44.387,-34.693,-58.2,-37.166,-61.054,-46.595,-57.955,-53.118,-60.727,-23.455,0,0,0,0,0,0,0,0,0,0,0,0,0,0,0,0,
185,-5.7686,16.512,-1.3107,-6.9199,4.975,15.309,-18.566,-26.747,-39.206,-23.128,-52.143,-44.608,-48.969,-48.148,-61.816,-28.424,0,0,0,0,0,0,0,0,0,0,0,0,0,0,0,0,
186,16.16,30.496,13.584,-2.8698,37.074,41.236,-1.7445,-7.8036,-12.213,-1.0919,-29.232,-19.622,-16.984,-16.18,-48.906,-13.392,0,0,0,0,0,0,0,0,0,0,0,0,0,0,0,0,
187,21.086,39.478,6.4796,-5.824,46.17,52.163,-26.923,23.141,5.7778,17.943,-45.32,-38.637,-23.999,-31.212,-45.997,-16.361,0,0,0,0,0,0,0,0,0,0,0,0,0,0,0,0,
188,11.013,37.461,-4.6227,-12.78,40.267,50.09,-23.1,59.085,4.7689,11.978,-46.41,-51.652,-27.016,-33.244,-52.089,-26.329,0,0,0,0,0,0,0,0,0,0,0,0,0,0,0,0,
189,-0.0584,30.446,15.277,-13.736,50.363,53.02,-4.2749,2.0321,14.76,21.013,-16.498,-15.665,-8.032,-15.275,-46.18,-19.296,0,0,0,0,0,0,0,0,0,0,0,0,0,0,0,0,
190,1.8703,6.4301,3.1803,-50.696,15.459,21.951,-4.4485,-50.019,12.749,7.0492,-25.587,-15.679,-30.049,-33.306,-43.273,-12.263,0,0,0,0,0,0,0,0,0,0,0,0,0,0,0,0,
191,-28.201,-34.585,-10.916,-82.661,-35.446,-28.117,-8.6224,-31.071,-14.261,-34.916,-35.677,-26.695,-45.069,-39.338,-47.369,-12.231,0,0,0,0,0,0,0,0,0,0,0,0,0,0,0,0,
192,-39.27,-50.6,-1.0106,-68.626,-47.351,-43.184,-0.79449,-31.121,-34.272,-58.88,-27.767,-28.71,-46.09,-47.371,-44.466,-15.198,0,0,0,0,0,0,0,0,0,0,0,0,0,0,0,0,
193,-18.339,-28.612,10.898,-49.593,-21.257,-13.249,14.035,-12.168,-19.283,-49.845,-24.858,-33.725,-37.112,-40.403,-43.563,-27.166,0,0,0,0,0,0,0,0,0,0,0,0,0,0,0,0,
194,-21.411,-6.6247,4.8066,-37.564,-5.1642,-4.3145,9.8641,37.781,-0.29494,-24.81,-24.95,-45.74,-35.135,-41.437,-43.66,-38.133,0,0,0,0,0,0,0,0,0,0,0,0,0,0,0,0,
195,-40.481,-9.6375,-8.2827,-34.538,-5.0729,0.6202,-1.3046,39.73,-17.307,-20.776,-42.04,-56.756,-51.159,-52.47,-50.758,-37.101,0,0,0,0,0,0,0,0,0,0,0,0,0,0,0,0,
196,-3.5498,-0.65011,16.63,-32.515,8.017,16.556,-15.472,-24.319,-23.321,-18.744,-45.13,-37.773,-47.182,-41.506,-49.857,-12.07,0,0,0,0,0,0,0,0,0,0,0,0,0,0,0,0,
197,27.382,7.3373,19.545,-45.495,7.1059,8.4914,-3.6391,-57.369,-27.335,-29.713,-51.22,-35.791,-63.207,-44.542,-49.956,7.9598,0,0,0,0,0,0,0,0,0,0,0,0,0,0,0,0,
198,7.313,6.3265,10.46,-53.476,-6.8059,-1.5717,-27.805,-36.414,-40.351,-36.681,-67.311,-58.809,-80.234,-59.578,-56.057,12.989,0,0,0,0,0,0,0,0,0,0,0,0,0,0,0,0,
199,-15.758,-6.6856,-4.6236,-50.459,-24.72,-18.635,-35.97,-20.46,-57.367,-44.649,-58.403,-47.828,-65.261,-42.614,-56.159,16.017,0,0,0,0,0,0,0,0,0,0,0,0,0,0,0,0,
200,-20.829,-12.697,-7.705,-51.445,-14.634,-12.697,-14.135,6.494,-44.383,-26.617,-43.495,-38.847,-59.288,-28.649,-45.261,19.044,0,0,0,0,0,0,0,0,0,0,0,0,0,0,0,0,
201,-5.8977,-6.7075,10.215,-68.431,-22.547,-12.757,-26.298,-0.54732,-46.398,-31.585,-45.587,-41.865,-62.315,-35.684,-41.363,2.0723,0,0,0,0,0,0,0,0,0,0,0,0,0,0,0,0,
202,-0.96451,-16.717,-3.8628,-87.42,-30.461,-25.815,-16.462,-19.59,-38.412,-47.553,-26.679,-15.885,-35.344,-19.721,-23.467,13.1,0,0,0,0,0,0,0,0,0,0,0,0,0,0,0,0,
203,-29.034,-25.728,8.0604,-74.412,-27.376,-23.873,9.3758,46.367,-22.428,-36.522,-17.772,-0.90558,-27.373,-12.758,-3.5728,37.126,0,0,0,0,0,0,0,0,0,0,0,0,0,0,0,0,
204,-40.101,-36.736,-22.014,-79.405,-42.29,-35.928,-12.784,0.32509,-26.445,-31.491,-38.866,-17.925,-48.403,-34.794,-13.68,23.153,0,0,0,0,0,0,0,0,0,0,0,0,0,0,0,0,
205,-108.17,-77.745,-74.087,-87.403,-60.206,-56.983,-23.946,-52.716,-45.462,-40.46,-34.96,-28.945,-61.434,-47.83,-37.788,0.18106,0,0,0,0,0,0,0,0,0,0,0,0,0,0,0,0,
206,-54.237,-65.754,7.8407,-96.403,-59.123,-48.039,-13.107,-41.758,-54.479,-60.428,-56.054,-60.965,-75.467,-76.866,-55.895,-20.791,0,0,0,0,0,0,0,0,0,0,0,0,0,0,0,0,
207,26.696,-10.76,44.77,-88.405,-52.041,-45.092,-16.265,-37.797,-60.497,-76.397,-66.149,-79.986,-82.5,-89.903,-65.002,-34.762,0,0,0,0,0,0,0,0,0,0,0,0,0,0,0,0,
208,-31.371,-27.766,-24.299,-101.41,-53.959,-49.145,-35.424,-37.835,-63.515,-80.366,-57.243,-88.007,-76.534,-87.941,-68.112,-40.734,0,0,0,0,0,0,0,0,0,0,0,0,0,0,0,0,
209,-36.436,-21.773,2.6345,-88.416,-30.879,-19.197,12.417,-8.8746,-39.536,-56.336,-31.336,-66.028,-47.569,-59.979,-54.225,-26.708,0,0,0,0,0,0,0,0,0,0,0,0,0,0,0,0,
210,-21.504,-37.779,4.5676,-90.425,-16.8,-10.249,-24.74,2.0867,-25.557,-36.307,-45.432,-51.05,-58.606,-56.018,-51.339,-7.6828,0,0,0,0,0,0,0,0,0,0,0,0,0,0,0,0,
211,-30.572,-44.787,-23.5,-101.44,-29.724,-22.302,-59.899,-18.951,-44.58,-43.278,-57.529,-54.073,-77.646,-63.058,-61.453,2.3427,0,0,0,0,0,0,0,0,0,0,0,0,0,0,0,0,
212,-33.64,-31.794,-15.565,-92.453,-38.649,-26.355,0.94327,-19.988,-48.604,-51.25,-56.626,-52.096,-83.686,-60.097,-70.569,8.3676,0,0,0,0,0,0,0,0,0,0,0,0,0,0,0,0,
213,-40.709,-27.801,-6.6293,-83.471,-26.577,-20.408,-7.2111,-32.025,-43.629,-42.222,-45.723,-45.118,-66.727,-56.136,-69.686,17.392,0,0,0,0,0,0,0,0,0,0,0,0,0,0,0,0,
214,-40.779,-48.808,-34.694,-97.489,-57.506,-45.46,-70.366,-14.06,-49.655,-44.195,-72.821,-59.142,-79.77,-75.177,-74.805,11.415,0,0,0,0,0,0,0,0,0,0,0,0,0,0,0,0,
215,-63.846,-62.813,-57.755,-100.51,-74.435,-61.511,-47.521,-23.095,-69.681,-61.17,-67.92,-45.167,-79.812,-68.218,-75.924,3.4369,0,0,0,0,0,0,0,0,0,0,0,0,0,0,0,0,
216,-72.914,-58.819,-61.815,-77.529,-55.365,-44.562,-40.675,-30.13,-63.708,-51.146,-53.018,-25.193,-59.856,-39.261,-58.046,14.457,0,0,0,0,0,0,0,0,0,0,0,0,0,0,0,0,
217,-76.983,-69.825,-59.875,-77.554,-61.297,-45.612,-50.829,-22.166,-44.737,-29.122,-49.119,-38.22,-56.902,-37.303,-33.169,34.477,0,0,0,0,0,0,0,0,0,0,0,0,0,0,0,0,
218,-96.05,-89.829,-68.932,-102.58,-74.228,-60.66,-41.982,-6.1999,-72.765,-62.097,-45.22,-29.246,-50.948,-25.345,-18.293,59.496,0,0,0,0,0,0,0,0,0,0,0,0,0,0,0,0,
219,-73.119,-58.834,-35.988,-96.607,-53.16,-40.707,-39.136,22.768,-56.793,-41.072,-53.319,-48.273,-54.994,-30.388,-22.417,60.515,0,0,0,0,0,0,0,0,0,0,0,0,0,0,0,0,
220,-72.186,-64.836,-52.042,-93.637,-71.092,-53.752,-42.288,-25.266,-70.822,-47.048,-61.42,-47.302,-70.041,-44.432,-32.542,54.533,0,0,0,0,0,0,0,0,0,0,0,0,0,0,0,0,
221,-65.251,-44.839,-48.094,-84.67,-60.025,-46.797,-31.437,-56.3,-73.85,-52.025,-51.52,-35.332,-71.089,-44.477,-38.669,50.551,0,0,0,0,0,0,0,0,0,0,0,0,0,0,0,0,
222,-48.316,-37.842,-32.144,-80.706,-39.959,-20.841,-32.585,-25.332,-65.879,-39.003,-51.62,-10.362,-60.139,-25.522,-29.797,56.568,0,0,0,0,0,0,0,0,0,0,0,0,0,0,0,0,
223,-20.382,-21.844,-24.192,-69.744,-32.894,-17.883,-65.731,-11.361,-50.908,-28.98,-56.721,-9.3913,-48.188,-18.567,-14.926,68.586,0,0,0,0,0,0,0,0,0,0,0,0,0,0,0,0,
224,-41.449,-20.848,-24.24,-64.785,-33.83,-17.926,-28.878,-17.39,-63.938,-32.957,-33.821,-15.42,-28.238,-12.612,-7.0542,62.604,0,0,0,0,0,0,0,0,0,0,0,0,0,0,0,0,
225,-4.5152,6.1505,3.7128,-41.827,-2.7683,18.032,22.973,7.5797,-28.97,-8.936,10.077,-8.4502,0.71056,0.34303,6.8161,53.621,0,0,0,0,0,0,0,0,0,0,0,0,0,0,0,0,
226,-11.582,25.149,22.667,-17.872,12.291,27.988,45.825,49.549,-11.004,10.084,39.974,23.518,8.6564,23.296,32.684,69.638,0,0,0,0,0,0,0,0,0,0,0,0,0,0,0,0,
227,0.35232,30.145,35.624,-27.921,13.351,27.946,56.679,25.518,-4.0374,24.104,55.87,29.487,17.601,23.249,60.55,95.654,0,0,0,0,0,0,0,0,0,0,0,0,0,0,0,0,
228,10.286,38.143,19.581,-38.971,1.4092,19.905,3.5339,31.489,-5.0722,11.122,46.766,14.455,-1.4545,11.202,60.415,97.668,0,0,0,0,0,0,0,0,0,0,0,0,0,0,0,0,
229,-17.781,20.141,-25.461,-53.024,-18.534,-6.136,-8.6112,26.461,-35.107,-6.8583,-18.338,-1.578,-48.511,-11.846,19.279,68.682,0,0,0,0,0,0,0,0,0,0,0,0,0,0,0,0,
230,-32.847,-11.862,-46.503,-79.08,-46.479,-27.177,-37.756,-42.567,-72.143,-36.839,-73.441,-32.611,-71.568,-42.893,-38.856,12.695,0,0,0,0,0,0,0,0,0,0,0,0,0,0,0,0,
231,-28.913,-0.86313,-40.544,-105.14,-45.425,-27.217,-46.9,-46.593,-69.18,-53.822,-80.547,-51.645,-78.625,-59.942,-77.993,-34.292,0,0,0,0,0,0,0,0,0,0,0,0,0,0,0,0,
232,-48.982,-17.866,-45.585,-123.2,-57.374,-43.259,-58.046,-17.619,-70.218,-63.805,-67.653,-59.681,-88.685,-68.992,-78.131,-39.28,0,0,0,0,0,0,0,0,0,0,0,0,0,0,0,0,
233,-69.052,-31.871,-43.627,-116.26,-66.326,-45.301,-41.193,-20.647,-83.259,-68.79,-50.761,-60.718,-78.746,-69.043,-55.27,-23.268,0,0,0,0,0,0,0,0,0,0,0,0,0,0,0,0,
234,-55.122,-21.876,-39.667,-98.328,-54.279,-38.342,-28.337,-37.677,-75.3,-63.777,-17.868,-44.755,-45.807,-53.094,-20.41,-7.256,0,0,0,0,0,0,0,0,0,0,0,0,0,0,0,0,
235,-49.193,-7.88,-53.705,-93.397,-57.233,-37.384,-28.481,-52.705,-63.343,-59.765,-21.975,-61.791,-50.869,-55.145,-5.5498,-19.243,0,0,0,0,0,0,0,0,0,0,0,0,0,0,0,0,
236,-45.262,-4.8837,-40.742,-60.468,-46.189,-19.425,-6.625,-26.731,-56.386,-50.752,-1.0818,-30.828,-32.933,-22.197,2.3096,-18.231,0,0,0,0,0,0,0,0,0,0,0,0,0,0,0,0,
237,-28.332,-0.88816,-6.7785,-44.539,-24.146,-6.4658,8.2325,28.244,-19.431,-21.74,21.81,-6.8642,-3.9971,4.7508,21.168,9.7814,0,0,0,0,0,0,0,0,0,0,0,0,0,0,0,0,
238,-12.402,3.1077,-8.8126,-54.613,-22.104,0.49449,-1.907,-26.781,3.5249,-11.728,-5.2976,-2.9005,-8.0617,4.6986,27.026,25.793,0,0,0,0,0,0,0,0,0,0,0,0,0,0,0,0,
239,-3.4724,14.104,6.154,-75.689,-21.063,-0.54423,-10.045,-41.806,3.4808,-19.717,-18.404,12.062,-5.1267,17.646,13.883,29.805,0,0,0,0,0,0,0,0,0,0,0,0,0,0,0,0,
240,-54.541,-34.899,-29.877,-94.766,-49.022,-34.581,1.8176,-31.829,7.4368,-24.706,-19.509,4.0245,-1.1912,15.593,3.7418,21.818,0,0,0,0,0,0,0,0,0,0,0,0,0,0,0,0,
241,-58.608,-34.9,-21.905,-92.844,-47.981,-25.617,-11.317,9.1475,0.39415,-19.695,-29.614,-9.0137,-1.2554,15.54,-2.3997,10.829,0,0,0,0,0,0,0,0,0,0,0,0,0,0,0,0,
242,-25.675,-6.9008,-16.931,-95.926,-20.94,-4.6508,-29.451,-5.8766,9.3521,0.31641,-15.722,-3.0534,2.6785,17.485,-4.5427,3.8398,0,0,0,0,0,0,0,0,0,0,0,0,0,0,0,0,
243,-7.7446,-6.9047,-3.958,-106.01,-32.903,-16.687,-4.5879,-43.899,6.3075,1.3252,-30.831,-14.094,-15.39,-0.57066,-13.689,-6.1518,0,0,0,0,0,0,0,0,0,0,0,0,0,0,0,0,
244,4.1848,-11.91,-4.9865,-118.1,-49.869,-30.725,-22.726,-43.923,-13.74,-19.667,-36.944,-23.137,-38.462,-21.628,-30.839,-24.145,0,0,0,0,0,0,0,0,0,0,0,0,0,0,0,0,
245,-6.8868,-13.916,-23.014,-111.19,-46.837,-34.762,-40.865,-1.949,-35.789,-34.661,-31.057,-33.18,-44.534,-31.685,-40.99,-33.138,0,0,0,0,0,0,0,0,0,0,0,0,0,0,0,0,
246,-10.958,-4.9201,-17.04,-104.29,-51.805,-34.798,-43.002,-20.971,-41.838,-35.655,-62.17,-39.223,-59.606,-42.741,-47.141,-40.132,0,0,0,0,0,0,0,0,0,0,0,0,0,0,0,0,
247,-11.031,4.0744,-2.0654,-109.38,-48.776,-30.835,-17.139,-48.994,-38.888,-35.65,-31.285,-3.2667,-23.681,-4.7997,-26.294,-15.126,0,0,0,0,0,0,0,0,0,0,0,0,0,0,0,0,
248,-5.1048,3.0674,-11.092,-110.48,-52.751,-39.875,-10.276,-33.018,-17.941,-20.647,-33.401,-11.311,-30.757,-4.8587,-11.447,2.8782,0,0,0,0,0,0,0,0,0,0,0,0,0,0,0,0,
249,-11.178,-26.94,-10.117,-99.579,-53.726,-31.913,-13.412,1.9568,-25.994,-16.644,-42.516,-6.3557,-25.833,-0.91786,-10.601,1.8813,0,0,0,0,0,0,0,0,0,0,0,0,0,0,0,0,
250,-28.253,-36.947,-18.143,-106.68,-51.704,-39.952,-63.549,-21.066,-9.0476,-10.643,-38.631,-21.401,-26.91,-11.978,-14.754,-13.116,0,0,0,0,0,0,0,0,0,0,0,0,0,0,0,0,
251,-65.329,-60.955,-52.167,-119.79,-82.683,-70.991,-55.684,-70.089,-37.102,-38.642,-52.747,-31.448,-43.988,-31.039,-21.908,-26.114,0,0,0,0,0,0,0,0,0,0,0,0,0,0,0,0,
252,-51.405,-50.963,-23.19,-113.9,-81.664,-64.029,-18.819,-37.111,-46.158,-39.642,-21.863,-11.495,-19.066,-15.1,-11.064,-18.113,0,0,0,0,0,0,0,0,0,0,0,0,0,0,0,0,
253,-30.481,-44.972,-14.213,-100.01,-63.646,-53.067,-23.955,-24.133,-29.216,-29.642,-23.98,-7.5422,-18.146,-12.161,-6.2208,-2.1126,0,0,0,0,0,0,0,0,0,0,0,0,0,0,0,0,
254,-2.5564,-34.979,-9.2343,-107.12,-59.629,-45.104,-9.0888,-12.156,-27.272,-22.642,-41.096,-12.589,-30.227,-15.222,-12.378,5.8881,0,0,0,0,0,0,0,0,0,0,0,0,0,0,0,0,
255,-11.633,-50.987,-35.254,-110.24,-82.614,-71.141,-58.221,-35.178,-50.331,-38.644,-46.212,-16.636,-48.309,-32.284,-23.536,-9.1118,0,0,0,0,0,0,0,0,0,0,0,0,0,0,0,0,
256,-38.709,-41.996,-21.274,-86.358,-67.601,-55.179,-18.354,-40.201,-58.389,-51.645,-10.33,-3.6861,-12.393,-9.3478,-17.695,-12.112,0,0,0,0,0,0,0,0,0,0,0,0,0,0,0,0,
257,-5.7847,-12.004,8.7084,-56.477,-33.588,-19.214,5.516,10.779,-7.448,-9.6472,-7.4462,1.2652,-0.47491,0.59018,-8.8539,2.8866,0,0,0,0,0,0,0,0,0,0,0,0,0,0,0,0,
258,-14.861,-13.013,-0.30856,-76.6,-16.578,-7.2516,19.385,-17.241,10.492,5.3484,5.4352,17.215,16.44,13.527,5.9855,22.884,0,0,0,0,0,0,0,0,0,0,0,0,0,0,0,0,
259,1.0608,2.9755,20.674,-59.727,6.4289,16.71,32.254,-0.26417,36.43,20.342,27.315,25.163,21.353,31.461,24.824,51.879,0,0,0,0,0,0,0,0,0,0,0,0,0,0,0,0,
260,33.984,4.9665,27.659,-48.855,9.4356,20.673,18.126,7.7134,45.367,36.336,32.195,29.111,27.266,39.396,34.663,70.876,0,0,0,0,0,0,0,0,0,0,0,0,0,0,0,0,
261,29.907,-9.0425,39.645,-44.984,15.442,19.637,21.997,0.69294,46.306,32.331,24.078,22.06,46.181,38.331,31.504,69.874,0,0,0,0,0,0,0,0,0,0,0,0,0,0,0,0,
262,32.83,-1.0529,54.631,-45.116,22.445,29.6,75.869,9.6715,60.244,30.324,29.962,10.007,46.096,25.266,21.345,49.873,0,0,0,0,0,0,0,0,0,0,0,0,0,0,0,0,
263,34.75,2.9358,47.617,-50.251,22.445,27.562,54.74,-1.3502,59.18,30.316,34.844,16.955,49.01,31.201,18.184,34.871,0,0,0,0,0,0,0,0,0,0,0,0,0,0,0,0,
264,41.669,10.923,55.603,-27.39,44.444,46.524,45.612,32.628,62.115,41.306,40.725,24.902,58.922,49.136,28.023,37.869,0,0,0,0,0,0,0,0,0,0,0,0,0,0,0,0,
265,66.59,47.911,107.59,-9.5301,66.441,71.487,93.486,51.608,84.049,67.297,74.605,34.849,81.833,58.069,47.86,50.867,0,0,0,0,0,0,0,0,0,0,0,0,0,0,0,0,
266,89.511,55.899,104.58,2.3275,68.437,64.451,108.36,8.5888,89.981,60.286,72.484,13.795,82.742,45.001,54.695,49.864,0,0,0,0,0,0,0,0,0,0,0,0,0,0,0,0,
267,79.429,59.885,94.566,14.181,66.431,65.413,97.228,-22.433,80.911,49.272,59.361,4.7394,72.649,43.931,53.528,34.859,0,0,0,0,0,0,0,0,0,0,0,0,0,0,0,0,
268,87.346,63.87,98.552,42.032,70.422,72.375,84.099,-6.4549,87.84,53.257,85.237,12.684,88.554,51.861,63.36,24.854,0,0,0,0,0,0,0,0,0,0,0,0,0,0,0,0,
269,83.263,46.854,85.541,44.881,63.411,59.337,80.973,6.5251,82.769,48.243,100.11,3.6276,78.46,34.791,68.193,10.849,0,0,0,0,0,0,0,0,0,0,0,0,0,0,0,0,
270,65.178,53.837,90.528,27.728,48.398,48.298,70.843,0.50482,70.697,38.228,75.987,-9.4304,50.363,13.719,52.024,-8.1563,0,0,0,0,0,0,0,0,0,0,0,0,0,0,0,0,
271,58.095,41.821,77.516,1.5732,21.383,20.26,67.714,-11.516,28.623,14.211,20.861,-26.489,9.2646,-9.3538,16.854,-42.163,0,0,0,0,0,0,0,0,0,0,0,0,0,0,0,0,
272,42.009,13.804,41.504,-4.5844,16.365,12.22,61.586,-14.536,13.548,10.192,4.7355,-37.548,3.1656,-13.428,-9.3165,-69.171,0,0,0,0,0,0,0,0,0,0,0,0,0,0,0,0,
273,43.923,34.785,54.493,40.255,32.344,37.179,30.458,38.443,22.471,12.172,18.608,9.3913,25.065,26.497,-8.4889,-50.181,0,0,0,0,0,0,0,0,0,0,0,0,0,0,0,0,
274,59.836,53.767,62.482,53.093,62.321,62.138,25.33,28.423,44.392,59.149,43.478,19.33,40.962,37.42,15.338,-15.192,0,0,0,0,0,0,0,0,0,0,0,0,0,0,0,0,
275,50.747,32.747,48.47,24.929,32.295,33.095,43.2,-37.6,32.31,40.125,21.348,-10.732,6.8578,-2.6572,19.163,-21.204,0,0,0,0,0,0,0,0,0,0,0,0,0,0,0,0,
276,29.66,23.727,41.458,30.76,23.267,32.052,40.07,7.3776,8.2272,11.1,43.217,14.205,23.752,14.264,16.988,-31.217,0,0,0,0,0,0,0,0,0,0,0,0,0,0,0,0,
277,35.571,36.705,35.448,36.589,32.236,33.008,22.942,-3.6439,28.145,28.074,42.086,1.1429,25.646,6.1862,11.813,-34.23,0,0,0,0,0,0,0,0,0,0,0,0,0,0,0,0,
278,14.481,11.682,19.438,30.416,15.203,24.963,7.8136,0.33496,10.061,19.047,2.9557,-29.92,14.541,-7.892,2.6383,-43.243,0,0,0,0,0,0,0,0,0,0,0,0,0,0,0,0,
279,32.39,41.658,43.428,45.241,35.168,42.918,33.686,15.315,21.976,32.019,5.825,-24.983,19.434,-4.9709,-5.5371,-46.257,0,0,0,0,0,0,0,0,0,0,0,0,0,0,0,0,
280,45.297,33.635,23.417,46.065,32.132,34.873,-5.4426,12.292,18.89,17.99,-4.3071,-25.047,0.32537,-22.051,-11.713,-45.271,0,0,0,0,0,0,0,0,0,0,0,0,0,0,0,0,
281,25.206,18.611,1.4073,45.888,14.094,25.829,-30.573,32.269,-7.1965,-5.0382,-37.441,-36.113,-25.785,-36.132,-32.89,-53.286,0,0,0,0,0,0,0,0,0,0,0,0,0,0,0,0,
282,24.113,27.585,4.3981,46.709,15.054,22.785,-6.7011,9.2482,-27.285,8.9313,-33.575,-25.178,-23.895,-21.213,-47.068,-56.302,0,0,0,0,0,0,0,0,0,0,0,0,0,0,0,0,
283,0.01966,6.5603,-7.6112,34.527,-9.9889,-1.261,-7.8288,-16.773,-20.373,-3.1005,-49.709,-27.244,-38.006,-36.294,-52.245,-54.318,0,0,0,0,0,0,0,0,0,0,0,0,0,0,0,0,
284,-29.075,-3.4658,-8.62,43.343,-20.034,-4.3073,-32.956,6.204,-36.465,-29.134,-55.844,-21.31,-36.119,-25.377,-49.425,-41.335,0,0,0,0,0,0,0,0,0,0,0,0,0,0,0,0,
285,13.828,25.506,12.371,44.156,8.918,20.645,-22.084,20.181,-20.558,5.83,-14.981,-5.378,-13.234,-2.4623,-34.606,-24.354,0,0,0,0,0,0,0,0,0,0,0,0,0,0,0,0,
286,11.732,8.4765,1.3632,31.967,-4.131,10.598,-21.212,0.16256,-11.651,7.7938,-32.115,-21.446,-37.348,-25.547,-33.786,-25.372,0,0,0,0,0,0,0,0,0,0,0,0,0,0,0,0,
287,13.635,-4.5536,-3.6439,16.776,-13.183,1.5504,-24.34,8.1381,-28.743,-12.242,-48.252,-35.516,-41.464,-41.633,-43.967,-42.392,0,0,0,0,0,0,0,0,0,0,0,0,0,0,0,0,
288,6.5369,-1.5847,16.348,26.582,-6.2367,5.5016,1.5331,49.112,-26.838,-18.28,-16.389,-27.586,-24.582,-35.719,-42.149,-55.411,0,0,0,0,0,0,0,0,0,0,0,0,0,0,0,0,
289,11.437,16.384,14.339,35.386,-9.2926,6.453,-5.5946,17.089,-14.934,-11.319,-19.527,-39.655,-27.699,-54.805,-38.331,-62.431,0,0,0,0,0,0,0,0,0,0,0,0,0,0,0,0,
290,-1.6662,0.34954,-11.67,25.188,-34.352,-21.598,-8.7217,-4.9333,-36.032,-37.36,-24.665,-36.725,-30.816,-58.89,-40.512,-59.449,0,0,0,0,0,0,0,0,0,0,0,0,0,0,0,0,
291,-13.771,-7.6862,-22.681,11.987,-46.414,-30.649,-31.85,-17.958,-43.13,-44.402,-12.803,-25.795,-30.934,-50.976,-35.692,-37.467,0,0,0,0,0,0,0,0,0,0,0,0,0,0,0,0,
292,-18.872,-23.72,-37.689,-3.213,-54.476,-36.698,-21.979,-34.983,-45.231,-41.445,-4.9428,-25.866,-31.054,-46.063,-33.873,-17.486,0,0,0,0,0,0,0,0,0,0,0,0,0,0,0,0,
293,-34.975,-20.755,-39.698,-6.4147,-52.539,-39.748,-13.107,-19.005,-50.332,-37.489,-8.0827,-3.9382,-21.176,-32.152,-34.055,-3.5064,0,0,0,0,0,0,0,0,0,0,0,0,0,0,0,0,
294,-22.08,-25.791,-32.707,-12.617,-58.605,-41.798,-41.234,28.973,-52.436,-29.534,-20.221,1.989,-32.297,-24.241,-29.238,0.47144,0,0,0,0,0,0,0,0,0,0,0,0,0,0,0,0,
295,-4.1859,-17.827,-33.716,-35.822,-54.674,-38.848,-33.361,3.948,-52.541,-22.581,-5.3604,-12.085,-28.42,-23.332,-23.421,0.44841,0,0,0,0,0,0,0,0,0,0,0,0,0,0,0,0,
296,-17.292,-9.8649,-37.725,-19.032,-57.745,-42.901,-39.489,-18.078,-49.646,-41.629,-5.5003,-8.1596,-20.543,-13.423,-16.604,6.4264,0,0,0,0,0,0,0,0,0,0,0,0,0,0,0,0,
297,-12.399,-6.9042,-34.732,-4.2435,-51.818,-31.953,-19.614,-3.103,-39.752,-27.678,-6.6403,-9.2354,-12.666,-5.5156,-10.787,1.4037,0,0,0,0,0,0,0,0,0,0,0,0,0,0,0,0,
298,-26.508,-17.944,-44.739,-2.4578,-37.893,-21.006,-51.741,-9.1282,-38.858,-7.7281,1.2179,-9.313,-3.7915,-1.6099,-5.9736,-9.6221,0,0,0,0,0,0,0,0,0,0,0,0,0,0,0,0,
299,-15.616,17.015,-27.747,4.3255,-17.97,-0.05929,-28.869,18.847,-19.965,4.2205,14.075,2.6086,4.0821,8.295,-8.1616,-22.65,0,0,0,0,0,0,0,0,0,0,0,0,0,0,0,0,
300,16.277,26.974,-10.753,-0.89172,-8.048,11.888,-3.9952,39.823,-6.0728,11.168,18.932,-4.4703,5.9562,9.1998,-13.35,-40.678,0,0,0,0,0,0,0,0,0,0,0,0,0,0,0,0,
301,18.169,5.9326,-8.7598,-10.11,0.87137,14.834,0.87852,39.796,1.8187,21.115,50.789,9.4515,19.83,19.105,-7.5364,-32.704,0,0,0,0,0,0,0,0,0,0,0,0,0,0,0,0,
302,8.0578,4.8902,3.2334,9.6711,-4.2116,16.779,4.7524,9.7708,1.7102,17.062,2.6467,-0.62659,-16.297,-7.9898,-19.721,-33.728,0,0,0,0,0,0,0,0,0,0,0,0,0,0,0,0,
303,27.948,16.847,32.23,19.45,13.704,33.725,36.63,13.748,2.6009,12.008,14.506,26.296,4.5777,14.916,-23.905,-24.751,0,0,0,0,0,0,0,0,0,0,0,0,0,0,0,0,
304,22.839,6.8033,23.227,5.2276,23.619,35.67,13.509,-1.2766,28.491,34.953,25.366,20.218,6.4521,13.822,-14.089,-12.776,0,0,0,0,0,0,0,0,0,0,0,0,0,0,0,0,
305,21.728,40.758,10.223,64.004,19.532,40.616,-4.6134,16.698,1.379,24.897,5.2245,0.13839,-4.6755,3.7255,-12.276,-16.802,0,0,0,0,0,0,0,0,0,0,0,0,0,0,0,0,
306,14.617,50.713,-2.7807,78.778,30.442,48.561,1.2637,22.672,14.266,32.837,28.082,23.057,31.196,25.628,-0.46393,-11.831,0,0,0,0,0,0,0,0,0,0,0,0,0,0,0,0,
307,9.5039,25.665,1.2141,58.55,38.35,58.504,18.138,44.646,32.15,56.777,29.936,23.975,25.065,28.529,7.3467,-4.8591,0,0,0,0,0,0,0,0,0,0,0,0,0,0,0,0,
308,36.391,34.617,15.209,68.32,31.257,55.448,28.012,60.617,31.034,51.716,14.788,10.892,12.932,14.429,-0.84359,-6.8879,0,0,0,0,0,0,0,0,0,0,0,0,0,0,0,0,
309,23.276,20.567,8.2025,57.088,25.161,44.391,20.886,48.588,21.917,30.653,23.638,5.8081,18.798,8.3278,-1.0361,-6.9194,0,0,0,0,0,0,0,0,0,0,0,0,0,0,0,0,
310,39.158,26.516,12.195,55.854,25.062,48.332,34.759,17.56,23.797,18.589,5.4878,-9.2774,15.661,-1.7754,3.7693,-16.954,0,0,0,0,0,0,0,0,0,0,0,0,0,0,0,0,
311,6.0405,22.463,-9.8128,53.617,7.9598,29.272,0.63325,-13.468,22.677,10.524,15.337,-5.3642,25.524,3.1206,19.574,-20.988,0,0,0,0,0,0,0,0,0,0,0,0,0,0,0,0,
312,-37.078,-0.5907,-13.82,45.378,-5.1439,14.212,-24.493,-10.494,7.5557,10.457,29.186,9.5485,32.387,26.017,35.38,-1.0222,0,0,0,0,0,0,0,0,0,0,0,0,0,0,0,0,
313,-8.2001,1.3529,-19.829,56.137,-14.251,11.15,3.3808,26.478,6.4333,26.388,-1.9644,0.46093,8.2494,23.912,19.186,2.9434,0,0,0,0,0,0,0,0,0,0,0,0,0,0,0,0,
314,-16.322,-15.705,-25.839,52.895,-26.361,-3.9136,-1.7474,17.449,-11.69,19.319,5.8832,13.372,9.1103,32.805,7.9904,1.9064,0,0,0,0,0,0,0,0,0,0,0,0,0,0,0,0,
315,19.555,1.2365,-1.849,61.651,-19.472,3.0232,17.125,20.42,-2.8151,18.247,48.731,25.283,27.971,44.698,21.793,10.867,0,0,0,0,0,0,0,0,0,0,0,0,0,0,0,0,
316,6.431,2.1776,-13.859,66.405,-18.585,6.9596,13.998,44.389,22.059,29.175,21.577,22.192,24.83,36.588,32.594,15.826,0,0,0,0,0,0,0,0,0,0,0,0,0,0,0,0,
317,-48.691,-7.8806,-32.866,49.158,-23.699,-3.1036,21.87,76.358,12.934,26.102,-2.5778,29.1,2.6882,26.477,30.394,15.784,0,0,0,0,0,0,0,0,0,0,0,0,0,0,0,0,
318,-30.815,-12.939,0.12648,37.911,-22.815,3.8337,45.744,20.328,-4.1927,28.027,10.267,28.007,4.5449,20.366,28.194,16.742,0,0,0,0,0,0,0,0,0,0,0,0,0,0,0,0,
319,-5.9371,-1.9975,7.1189,43.661,-7.9322,15.77,-3.3825,-1.7031,17.679,25.952,19.11,19.913,7.3987,14.253,33.993,22.698,0,0,0,0,0,0,0,0,0,0,0,0,0,0,0,0,
320,-10.06,-24.058,-18.889,26.41,-25.052,-5.2936,-10.511,14.266,-7.4519,11.874,-10.049,-2.1827,-21.748,-8.8603,22.79,15.651,0,0,0,0,0,0,0,0,0,0,0,0,0,0,0,0,
321,-25.183,-25.118,-15.895,20.157,-28.172,-3.3568,-5.6383,3.2378,-21.581,-0.203,-13.206,-2.2783,-19.893,-6.9737,5.5874,5.6035,0,0,0,0,0,0,0,0,0,0,0,0,0,0,0,0,
322,-19.309,-24.18,-14.902,18.904,-33.296,-14.422,-21.765,15.207,-16.712,2.7176,26.635,29.624,16.961,18.911,23.385,21.555,0,0,0,0,0,0,0,0,0,0,0,0,0,0,0,0,
323,-33.435,-43.243,-35.91,11.648,-44.423,-23.489,-17.893,20.173,-5.8461,0.63525,9.4744,12.526,13.812,5.7947,50.181,34.505,0,0,0,0,0,0,0,0,0,0,0,0,0,0,0,0,
324,-49.559,-47.305,-36.915,12.391,-46.552,-23.556,-1.0206,59.138,-9.9804,-11.448,-4.687,2.4267,12.663,1.677,57.978,26.456,0,0,0,0,0,0,0,0,0,0,0,0,0,0,0,0,
325,-57.688,-62.372,-48.924,-21.869,-65.684,-49.625,-47.149,-6.8966,-19.116,-22.533,-17.849,-0.67254,-4.4881,-7.4412,42.775,10.407,0,0,0,0,0,0,0,0,0,0,0,0,0,0,0,0,
326,-78.819,-63.44,-49.935,-7.1288,-64.819,-40.696,-37.277,-19.93,-33.254,-33.618,-29.009,-4.7713,-11.639,-8.5589,29.572,-0.64336,0,0,0,0,0,0,0,0,0,0,0,0,0,0,0,0,
327,-64.949,-51.508,-39.945,8.6103,-46.955,-25.766,4.5953,3.0349,-27.392,-22.704,-14.171,-10.87,7.2097,-8.6775,30.369,1.3063,0,0,0,0,0,0,0,0,0,0,0,0,0,0,0,0,
328,-57.082,-61.577,-47.954,6.347,-48.094,-30.838,-30.532,1.0004,-13.531,-22.793,2.668,-16.971,17.058,-11.797,39.167,-6.7453,0,0,0,0,0,0,0,0,0,0,0,0,0,0,0,0,
329,-39.212,-58.646,-37.963,9.0819,-46.234,-24.909,-11.662,17.965,-5.6728,-4.8844,15.505,-12.072,13.905,-11.918,42.963,-23.8,0,0,0,0,0,0,0,0,0,0,0,0,0,0,0,0,
330,-74.343,-56.715,-52.973,6.8169,-58.376,-40.981,6.2083,41.93,-24.815,-15.975,6.341,-14.175,7.7503,-8.0392,39.758,-27.854,0,0,0,0,0,0,0,0,0,0,0,0,0,0,0,0,
331,-74.477,-56.786,-42.983,-16.45,-72.52,-57.054,-15.921,-12.107,-27.959,-30.067,-22.824,-38.279,-24.406,-38.161,23.552,-38.908,0,0,0,0,0,0,0,0,0,0,0,0,0,0,0,0,
332,-79.61,-51.858,-42.994,-13.717,-80.667,-57.127,-2.0517,-6.1439,-60.105,-50.161,-10.99,-18.384,-27.563,-33.284,10.346,-37.962,0,0,0,0,0,0,0,0,0,0,0,0,0,0,0,0,
333,-48.744,-32.931,-34.004,-17.986,-65.815,-49.201,12.818,-37.184,-46.251,-44.256,6.8438,-13.489,-15.721,-32.408,13.14,-23.017,0,0,0,0,0,0,0,0,0,0,0,0,0,0,0,0,
334,-37.878,-57.004,-25.014,-56.256,-74.966,-57.276,0.68857,-68.226,-36.398,-60.352,-1.3231,-34.594,-19.879,-60.533,12.933,-21.075,0,0,0,0,0,0,0,0,0,0,0,0,0,0,0,0,
335,-46.014,-56.08,-33.025,-46.528,-78.119,-58.352,7.5578,-29.267,-21.545,-70.45,25.509,-11.701,3.9619,-35.659,22.725,-11.134,0,0,0,0,0,0,0,0,0,0,0,0,0,0,0,0,
336,-56.153,-39.157,-23.037,-51.8,-66.275,-52.429,31.428,-52.305,-8.6935,-46.549,13.34,-1.8087,-4.197,-23.787,24.516,1.8041,0,0,0,0,0,0,0,0,0,0,0,0,0,0,0,0,
337,-71.292,-40.236,-44.049,-49.075,-70.432,-49.506,-14.702,-42.343,-15.842,-44.649,-31.828,-3.9168,-32.356,-27.915,4.3072,6.742,0,0,0,0,0,0,0,0,0,0,0,0,0,0,0,0,
338,-43.431,-31.315,-35.06,-1.3505,-58.592,-43.584,-25.831,5.6169,-31.992,-43.752,-16.997,-5.0252,-24.515,-19.043,-8.9014,6.68,0,0,0,0,0,0,0,0,0,0,0,0,0,0,0,0,
339,-37.571,-50.397,-43.072,-29.628,-55.755,-43.665,-9.9613,-18.424,-31.143,-39.856,-31.166,-25.134,-25.675,-25.173,-15.11,-3.3821,0,0,0,0,0,0,0,0,0,0,0,0,0,0,0,0,
340,-61.713,-61.479,-48.086,-43.908,-69.922,-51.747,-39.092,-44.467,-41.296,-46.96,-28.336,-28.244,-13.837,-16.303,-6.3184,-7.4451,0,0,0,0,0,0,0,0,0,0,0,0,0,0,0,0,
341,-49.855,-56.56,-28.1,-14.188,-55.088,-41.828,-6.2225,-21.513,-40.449,-37.065,4.4944,-17.354,19.001,-6.4333,12.473,-4.5088,0,0,0,0,0,0,0,0,0,0,0,0,0,0,0,0,
342,-23.997,-27.642,-22.113,11.533,-37.255,-21.908,-3.3529,-42.556,-10.603,-25.171,-0.67449,-19.464,17.841,-21.564,20.264,-10.573,0,0,0,0,0,0,0,0,0,0,0,0,0,0,0,0,
343,-52.139,-44.723,-53.127,-19.747,-65.423,-50.988,-33.485,-61.597,-35.757,-42.278,-22.845,-29.576,-8.3208,-25.695,12.054,-23.638,0,0,0,0,0,0,0,0,0,0,0,0,0,0,0,0,
344,-80.281,-62.807,-73.141,-34.028,-76.593,-62.069,-47.617,-46.638,-56.912,-49.385,-16.017,-29.688,-5.4833,-16.827,2.8457,-23.703,0,0,0,0,0,0,0,0,0,0,0,0,0,0,0,0,
345,-61.425,-62.891,-67.154,-24.309,-67.765,-48.15,-20.747,-32.68,-30.069,-45.494,-29.189,-37.8,-9.6458,-26.959,-8.3633,-28.768,0,0,0,0,0,0,0,0,0,0,0,0,0,0,0,0,
346,-52.571,-54.977,-53.168,-10.592,-63.94,-51.233,-24.879,27.275,-41.227,-45.605,-40.361,-20.913,-12.81,-12.092,-13.572,-40.835,0,0,0,0,0,0,0,0,0,0,0,0,0,0,0,0,
347,-51.718,-61.066,-54.183,-29.878,-80.119,-68.319,-44.011,-23.773,-45.386,-34.718,-43.534,-19.027,-26.975,-19.227,-18.781,-47.902,0,0,0,0,0,0,0,0,0,0,0,0,0,0,0,0,
348,-75.864,-77.155,-75.198,-28.164,-93.3,-75.405,-39.142,-48.821,-72.546,-61.832,-51.707,-16.142,-37.14,-27.361,-28.991,-47.969,0,0,0,0,0,0,0,0,0,0,0,0,0,0,0,0,
349,-69.011,-71.244,-69.214,-40.452,-83.483,-71.492,-54.273,-50.869,-73.706,-55.947,-33.881,-14.257,-30.307,-29.497,-27.2,-40.036,0,0,0,0,0,0,0,0,0,0,0,0,0,0,0,0,
350,-85.16,-79.336,-69.23,-54.742,-93.669,-75.581,-42.406,-58.914,-65.869,-69.063,-29.056,-28.372,-27.473,-46.632,-15.409,-40.105,0,0,0,0,0,0,0,0,0,0,0,0,0,0,0,0,
351,-74.311,-63.43,-57.246,-36.034,-86.857,-69.672,-39.538,-46.961,-63.032,-74.182,-52.23,-40.488,-38.639,-52.768,-26.618,-55.175,0,0,0,0,0,0,0,0,0,0,0,0,0,0,0,0,
352,-59.461,-62.525,-48.261,-41.327,-75.047,-64.763,-31.67,-33.01,-50.195,-57.3,-41.404,-56.604,-45.805,-59.904,-46.827,-69.244,0,0,0,0,0,0,0,0,0,0,0,0,0,0,0,0,
353,-79.613,-78.622,-50.277,-38.621,-95.24,-77.855,-18.802,-18.059,-53.359,-67.422,-54.58,-53.72,-53.972,-63.041,-64.037,-80.315,0,0,0,0,0,0,0,0,0,0,0,0,0,0,0,0,
354,-51.765,-74.719,-41.293,-35.916,-72.435,-58.948,-46.936,-32.111,-37.524,-66.545,-60.756,-34.839,-47.141,-40.18,-60.247,-84.388,0,0,0,0,0,0,0,0,0,0,0,0,0,0,0,0,
355,-49.919,-58.817,-53.31,-27.21,-57.63,-45.041,-46.068,-43.162,-42.69,-51.668,-55.931,-24.958,-42.308,-30.32,-46.457,-77.461,0,0,0,0,0,0,0,0,0,0,0,0,0,0,0,0,
356,-32.072,-30.915,-23.328,-32.505,-39.827,-25.133,-9.2002,-32.215,-35.857,-42.792,-45.108,-20.078,-27.477,-21.46,-33.667,-64.535,0,0,0,0,0,0,0,0,0,0,0,0,0,0,0,0,
357,-34.224,-30.012,-23.344,-30.801,-23.023,-15.224,-16.333,-16.267,-24.023,-33.916,-25.285,-12.199,-5.6455,-3.6005,-22.877,-50.61,0,0,0,0,0,0,0,0,0,0,0,0,0,0,0,0,
358,-3.3771,-8.1099,3.6395,-6.0972,0.77776,14.683,1.5327,19.682,-2.1916,-2.0418,3.5368,2.6792,24.184,16.258,-5.0858,-27.686,0,0,0,0,0,0,0,0,0,0,0,0,0,0,0,0,
359,35.469,-2.2078,29.623,-2.3938,4.5777,14.591,39.401,1.6301,25.639,16.831,59.358,36.558,60.014,35.117,34.704,17.239,0,0,0,0,0,0,0,0,0,0,0,0,0,0,0,0,
360,-5.6846,-16.306,11.606,-40.69,-11.624,-5.5013,48.269,-8.4214,41.47,6.7043,58.18,40.437,59.845,34.976,65.494,44.163,0,0,0,0,0,0,0,0,0,0,0,0,0,0,0,0,
361,-20.838,-15.406,19.589,-17.987,-15.827,-4.5945,49.136,29.526,29.301,5.5765,37.002,32.315,34.676,37.833,66.282,41.085,0,0,0,0,0,0,0,0,0,0,0,0,0,0,0,0,
362,-26.994,-39.509,-12.43,-28.287,-34.034,-29.69,6.001,3.4722,1.13,-5.5539,-9.178,-0.80814,-10.495,2.6898,21.071,-7.9961,0,0,0,0,0,0,0,0,0,0,0,0,0,0,0,0,
363,-52.154,-61.613,-29.451,-35.588,-51.245,-45.789,-38.136,-4.5831,-25.044,-31.687,-38.359,-26.932,-41.667,-25.454,-33.141,-67.078,0,0,0,0,0,0,0,0,0,0,0,0,0,0,0,0,
364,-59.313,-66.719,-48.474,-41.89,-68.458,-57.889,-66.271,-31.641,-47.218,-44.821,-64.54,-24.055,-51.84,-34.598,-59.351,-90.159,0,0,0,0,0,0,0,0,0,0,0,0,0,0,0,0,
365,-50.471,-77.824,-61.495,-48.193,-75.673,-68.989,-45.405,-23.696,-61.392,-56.954,-50.719,-21.179,-41.011,-41.742,-54.56,-85.239,0,0,0,0,0,0,0,0,0,0,0,0,0,0,0,0,
366,-57.631,-63.931,-58.515,-41.496,-73.888,-62.089,-45.539,-4.7492,-54.567,-53.089,-45.899,-45.303,-49.183,-56.886,-50.769,-86.32,0,0,0,0,0,0,0,0,0,0,0,0,0,0,0,0,
367,-74.791,-56.038,-68.537,-33.8,-75.106,-65.19,-82.675,-42.805,-69.744,-64.226,-81.081,-42.428,-65.357,-60.033,-56.979,-86.404,0,0,0,0,0,0,0,0,0,0,0,0,0,0,0,0,
368,-45.951,-39.148,-38.561,-15.105,-51.326,-43.293,-45.81,-59.864,-61.923,-63.366,-44.263,-19.555,-36.532,-35.182,-40.19,-63.488,0,0,0,0,0,0,0,0,0,0,0,0,0,0,0,0,
369,-15.113,-24.259,-16.584,-9.411,-49.549,-33.397,-24.947,-32.924,-35.103,-47.508,-27.446,-15.682,-22.708,-26.332,-17.402,-38.575,0,0,0,0,0,0,0,0,0,0,0,0,0,0,0,0,
370,-26.275,-25.371,-41.608,-3.7179,-53.774,-45.502,-28.085,10.014,-35.285,-34.652,-32.631,4.1898,-24.885,-11.483,-7.6143,-27.663,0,0,0,0,0,0,0,0,0,0,0,0,0,0,0,0,
371,-48.439,-51.484,-42.635,-25.025,-71.001,-61.608,-51.223,-17.047,-43.467,-31.795,-45.815,-5.9388,-40.061,-25.634,-18.825,-34.75,0,0,0,0,0,0,0,0,0,0,0,0,0,0,0,0,
372,-57.606,-56.599,-44.663,-22.333,-74.23,-58.714,-57.359,-21.107,-62.649,-45.939,-35.996,-3.0673,-32.236,-18.784,-33.034,-39.837,0,0,0,0,0,0,0,0,0,0,0,0,0,0,0,0,
373,-35.771,-30.714,-40.685,-18.643,-51.46,-43.822,-40.497,-6.1689,-47.831,-37.084,-30.178,1.8028,-24.412,-9.9355,-30.242,-36.924,0,0,0,0,0,0,0,0,0,0,0,0,0,0,0,0,
374,-34.935,-37.83,-31.71,-6.9536,-53.692,-39.929,-25.633,37.77,-44.014,-37.232,-38.36,-5.327,-29.587,-14.086,-20.45,-40.013,0,0,0,0,0,0,0,0,0,0,0,0,0,0,0,0,
375,-27.102,-35.948,-15.737,-3.2657,-49.926,-39.038,-68.77,-39.294,-30.196,-32.38,-23.542,-9.4574,-22.762,-10.238,-13.658,-52.102,0,0,0,0,0,0,0,0,0,0,0,0,0,0,0,0,
376,-15.271,-26.067,-21.765,4.4206,-36.162,-28.149,-28.908,-30.36,-27.38,-26.528,-16.724,23.413,-8.9365,7.6108,-2.8654,-48.191,0,0,0,0,0,0,0,0,0,0,0,0,0,0,0,0,
377,-22.439,-27.186,-17.792,7.1076,-34.399,-23.258,-5.0446,-2.4242,-11.565,-15.675,-12.906,15.285,-6.1108,-2.539,1.9277,-33.28,0,0,0,0,0,0,0,0,0,0,0,0,0,0,0,0,
378,-34.608,-38.307,-12.82,-18.207,-34.637,-30.368,-47.18,-3.4876,-6.7508,-19.825,-10.088,24.155,-7.2857,9.3101,5.7212,-8.3696,0,0,0,0,0,0,0,0,0,0,0,0,0,0,0,0,
379,-19.777,-26.429,4.1521,-13.522,-18.877,-11.48,-18.319,22.447,-7.9355,-4.9751,25.728,20.024,9.5385,16.158,10.515,-6.4599,0,0,0,0,0,0,0,0,0,0,0,0,0,0,0,0,
380,-19.947,-25.553,-0.87671,-21.837,-29.119,-20.592,5.5434,32.381,-6.1222,-9.1274,23.544,22.893,15.362,13.005,22.309,-13.552,0,0,0,0,0,0,0,0,0,0,0,0,0,0,0,0,
381,-1.1184,-26.676,-10.906,-30.155,-25.363,-24.705,-5.5944,-13.687,-4.3103,-10.28,19.358,32.761,22.184,17.851,37.1,0.35338,0,0,0,0,0,0,0,0,0,0,0,0,0,0,0,0,
382,-10.289,-27.801,-18.936,-36.473,-27.608,-21.818,-20.732,-30.754,-10.499,-12.434,20.173,24.629,15.005,15.696,40.892,16.259,0,0,0,0,0,0,0,0,0,0,0,0,0,0,0,0,
383,-23.461,-23.927,-5.967,-34.791,-27.855,-24.933,-2.8704,-9.8227,-11.689,-19.59,27.986,32.495,19.827,21.54,36.684,21.164,0,0,0,0,0,0,0,0,0,0,0,0,0,0,0,0,
384,-27.633,-17.054,-3.9966,-31.111,-13.103,-15.049,-12.01,-12.892,2.1227,-9.7464,27.801,30.362,20.65,21.385,30.478,19.07,0,0,0,0,0,0,0,0,0,0,0,0,0,0,0,0,
385,-4.8057,-15.18,-5.0266,-28.431,-13.353,-8.1641,10.852,-0.96034,-2.0666,-7.9034,32.615,26.23,16.474,17.231,20.273,2.9766,0,0,0,0,0,0,0,0,0,0,0,0,0,0,0,0,
386,13.02,3.6905,-5.0585,-28.751,-7.6049,-6.2814,32.712,26.971,9.7424,4.9383,34.43,27.096,27.297,19.076,19.068,-4.1177,0,0,0,0,0,0,0,0,0,0,0,0,0,0,0,0,
387,15.844,-9.4405,5.9094,-40.07,-2.8586,-4.3998,8.5736,38.901,24.552,5.7797,22.244,9.9629,21.121,6.9209,20.864,-12.213,0,0,0,0,0,0,0,0,0,0,0,0,0,0,0,0,
388,-17.332,-18.572,2.8774,-40.39,-12.114,-10.519,5.4347,26.829,14.361,-2.3795,22.058,10.828,13.945,3.7648,25.661,-16.31,0,0,0,0,0,0,0,0,0,0,0,0,0,0,0,0,
389,-12.508,-13.706,3.8447,-47.711,-11.372,-15.64,18.294,-21.243,6.1696,-9.541,23.872,17.693,16.769,6.6078,32.458,-8.4074,0,0,0,0,0,0,0,0,0,0,0,0,0,0,0,0,
390,-4.6846,-10.84,-1.1892,-49.033,-2.6313,0.23869,8.1531,-14.315,5.9762,-11.704,27.685,13.557,6.5915,7.4501,28.255,-10.505,0,0,0,0,0,0,0,0,0,0,0,0,0,0,0,0,
391,-4.863,-3.9752,15.776,-20.354,-0.89337,-2.8845,15.011,-5.3888,1.7806,0.13262,18.498,8.4204,-9.5867,1.2925,19.053,-15.601,0,0,0,0,0,0,0,0,0,0,0,0,0,0,0,0,
392,-6.0436,-24.112,6.74,-30.677,-15.157,-18.008,9.8701,-13.464,-11.417,-26.033,28.311,17.285,-7.7652,7.1352,17.852,-17.698,0,0,0,0,0,0,0,0,0,0,0,0,0,0,0,0,
393,15.775,11.751,35.703,-15.001,18.578,19.867,45.729,8.4602,14.385,1.8011,65.124,32.148,21.056,22.977,34.651,-11.794,0,0,0,0,0,0,0,0,0,0,0,0,0,0,0,0,
394,24.595,3.6124,43.666,-22.324,26.312,18.742,45.586,17.387,33.187,14.635,51.937,36.012,31.878,29.819,48.451,-5.8908,0,0,0,0,0,0,0,0,0,0,0,0,0,0,0,0,
395,32.413,6.4719,57.628,-34.648,11.043,3.615,61.442,9.3123,42.989,9.468,45.748,20.875,21.699,24.66,45.25,-8.9885,0,0,0,0,0,0,0,0,0,0,0,0,0,0,0,0,
396,40.23,6.3313,68.59,-21.972,23.773,18.488,64.299,50.237,49.791,13.299,60.559,28.737,32.521,31.5,39.049,-8.0876,0,0,0,0,0,0,0,0,0,0,0,0,0,0,0,0,
397,14.047,-13.809,28.553,-23.297,12.502,0.36023,37.158,-6.8404,55.592,16.128,64.372,27.6,35.345,15.34,37.85,-4.1876,0,0,0,0,0,0,0,0,0,0,0,0,0,0,0,0,
398,24.864,-4.9516,44.514,-3.6227,25.23,19.231,83.017,-0.92121,48.392,10.955,60.185,38.463,37.168,18.18,43.652,0.71184,0,0,0,0,0,0,0,0,0,0,0,0,0,0,0,0,
399,19.679,-9.0952,40.476,-15.95,4.9541,-6.8989,56.874,-16.001,42.193,11.781,34.998,28.325,20.99,18.019,44.453,9.6105,0,0,0,0,0,0,0,0,0,0,0,0,0,0,0,0,
400,-6.5055,-26.24,20.436,-22.278,-5.3232,-18.031,48.732,-26.08,30.992,-7.393,50.811,27.187,23.813,21.859,45.255,17.509,0,0,0,0,0,0,0,0,0,0,0,0,0,0,0,0,
401,9.3056,-14.388,27.393,9.3932,11.396,5.8341,52.588,7.8392,47.789,8.4315,31.621,12.048,12.633,14.696,37.054,3.4039,0,0,0,0,0,0,0,0,0,0,0,0,0,0,0,0,
402,18.115,7.4635,28.349,24.065,31.113,20.699,57.444,15.76,45.584,28.255,31.431,17.909,22.453,25.534,30.854,-12.703,0,0,0,0,0,0,0,0,0,0,0,0,0,0,0,0,
403,-1.0722,2.3149,24.308,15.736,19.831,11.564,25.299,22.679,41.38,28.079,25.243,14.77,6.2742,5.3712,17.654,-31.811,0,0,0,0,0,0,0,0,0,0,0,0,0,0,0,0,
404,0.74008,10.166,25.268,34.408,23.549,23.43,22.155,23.597,39.177,8.9016,24.056,16.631,6.0972,7.2092,8.4571,-40.919,0,0,0,0,0,0,0,0,0,0,0,0,0,0,0,0,
405,8.5528,4.0171,14.226,26.081,29.266,21.296,19.015,-10.485,49.972,21.724,31.87,24.493,24.921,26.048,21.261,-21.026,0,0,0,0,0,0,0,0,0,0,0,0,0,0,0,0,
406,-3.6351,-7.1325,15.186,20.754,25.983,27.162,33.875,14.433,45.768,33.548,45.685,29.355,29.746,34.887,40.067,11.869,0,0,0,0,0,0,0,0,0,0,0,0,0,0,0,0,
407,6.1766,-10.281,12.145,11.428,16.7,13.029,33.735,-8.6466,39.566,25.372,-4.4999,11.218,-0.42862,16.728,20.875,12.764,0,0,0,0,0,0,0,0,0,0,0,0,0,0,0,0,
408,-16.012,-23.432,-14.895,-3.8982,-7.5846,-14.105,30.595,-20.727,9.3647,0.19585,-20.684,20.079,2.3978,10.568,-12.316,-10.342,0,0,0,0,0,0,0,0,0,0,0,0,0,0,0,0,
409,-20.202,-29.585,-7.9384,7.7752,-15.871,-14.24,11.454,-11.809,13.163,0.01865,-22.869,19.938,6.2231,12.405,-28.507,-26.45,0,0,0,0,0,0,0,0,0,0,0,0,0,0,0,0,
410,-24.394,-24.739,-14.983,24.447,-12.16,-14.377,-26.69,12.105,7.9601,8.8382,-12.056,26.797,14.048,25.242,-18.699,-25.56,0,0,0,0,0,0,0,0,0,0,0,0,0,0,0,0,
411,-28.586,-23.895,-38.027,18.118,-19.45,-21.514,-35.835,9.0197,5.756,15.656,-11.243,11.656,7.8735,14.079,-9.8924,-17.671,0,0,0,0,0,0,0,0,0,0,0,0,0,0,0,0,
412,-27.779,-27.051,-39.072,13.789,-25.741,-22.653,-12.98,-29.067,8.5513,8.474,5.5699,20.515,17.698,17.916,-5.0863,-1.7821,0,0,0,0,0,0,0,0,0,0,0,0,0,0,0,0,
413,-38.972,-40.208,-26.118,8.4609,-32.034,-32.792,-14.124,-10.154,6.345,1.2905,10.381,23.373,9.5222,14.751,-2.281,8.1052,0,0,0,0,0,0,0,0,0,0,0,0,0,0,0,0,
414,-6.1679,-12.366,-12.166,27.131,-17.329,-10.932,5.7313,-20.241,-2.8611,7.1066,23.192,9.2309,10.346,9.587,2.5243,5.991,0,0,0,0,0,0,0,0,0,0,0,0,0,0,0,0,
415,-1.361,-2.5228,-14.21,15.804,-26.622,-26.071,-15.411,-15.325,6.9346,-1.0764,-14.996,2.0897,-13.829,-8.5766,-5.6685,-11.123,0,0,0,0,0,0,0,0,0,0,0,0,0,0,0,0,
416,-50.553,-41.68,-46.254,5.4776,-55.915,-54.21,-29.553,-13.411,-34.27,-24.26,-28.184,16.949,-30.003,-9.7401,-11.86,-18.237,0,0,0,0,0,0,0,0,0,0,0,0,0,0,0,0,
417,-16.747,-21.838,-40.301,27.15,-48.212,-37.351,-17.698,1.4982,-39.477,-23.447,-20.372,31.805,-22.178,-1.9064,-9.0527,-9.3536,0,0,0,0,0,0,0,0,0,0,0,0,0,0,0,0,
418,-10.94,-11.998,-35.348,37.823,-24.508,-21.491,-24.841,26.407,-19.687,-14.635,-4.5619,31.661,-6.354,2.9272,0.75393,6.5291,0,0,0,0,0,0,0,0,0,0,0,0,0,0,0,0,
419,-8.134,-15.158,-35.394,37.496,-17.805,-12.632,-24.987,54.318,-10.896,0.17823,8.249,12.519,-11.529,-7.2374,5.5619,12.413,0,0,0,0,0,0,0,0,0,0,0,0,0,0,0,0,
420,-31.328,-15.319,-42.442,30.168,-21.105,-9.7744,-1.1326,15.226,-32.107,-4.01,26.06,20.377,0.29455,4.597,11.372,13.299,0,0,0,0,0,0,0,0,0,0,0,0,0,0,0,0,
421,12.478,4.5216,-17.49,30.842,2.5957,8.0831,-5.2757,-22.867,-2.3156,6.8005,23.871,25.234,12.119,12.431,26.182,20.184,0,0,0,0,0,0,0,0,0,0,0,0,0,0,0,0,
422,2.283,-8.6389,-26.539,16.515,-4.7047,3.9401,5.5786,-21.957,11.475,1.6106,20.682,13.091,14.945,10.265,37.993,19.069,0,0,0,0,0,0,0,0,0,0,0,0,0,0,0,0,
423,14.088,-5.8,-17.588,40.189,8.9941,15.797,22.434,22.953,16.266,13.42,23.495,22.947,22.773,30.1,40.804,14.952,0,0,0,0,0,0,0,0,0,0,0,0,0,0,0,0,
424,-3.1079,5.0373,-0.6368,68.863,21.692,27.653,14.289,47.858,18.056,29.228,19.308,45.804,23.601,41.934,32.617,10.834,0,0,0,0,0,0,0,0,0,0,0,0,0,0,0,0,
425,2.6961,9.8728,-4.6862,75.536,20.388,29.508,-16.856,3.7625,16.846,37.035,18.12,35.66,22.427,33.767,28.43,9.7158,0,0,0,0,0,0,0,0,0,0,0,0,0,0,0,0,
426,16.499,7.7078,-14.738,41.21,19.081,25.361,-3.0018,-18.333,10.635,28.84,16.93,16.515,31.253,38.599,28.243,10.598,0,0,0,0,0,0,0,0,0,0,0,0,0,0,0,0,
427,23.3,4.5415,-11.79,35.884,13.774,19.213,10.851,2.5733,20.424,23.646,7.7413,-6.629,14.081,17.433,20.058,1.4804,0,0,0,0,0,0,0,0,0,0,0,0,0,0,0,0,
428,15.103,20.375,12.16,60.558,22.467,33.066,20.706,-45.522,26.213,18.451,-4.4462,2.2282,17.909,20.268,9.8727,-3.6377,0,0,0,0,0,0,0,0,0,0,0,0,0,0,0,0,
429,36.906,25.208,19.109,52.232,27.159,30.919,-3.4382,-43.619,30.002,24.256,-14.636,1.0842,12.736,11.101,3.6877,-3.7572,0,0,0,0,0,0,0,0,0,0,0,0,0,0,0,0,
430,25.709,14.041,-7.9413,47.907,13.852,19.772,-13.583,-1.7126,14.79,9.0615,-24.824,-9.0589,-8.4361,-9.0644,-8.4968,-17.878,0,0,0,0,0,0,0,0,0,0,0,0,0,0,0,0,
431,29.512,18.874,8.0075,67.584,26.544,34.626,-4.7291,42.192,4.5769,4.8666,-14.013,12.797,6.3918,9.7695,-6.6815,-23,0,0,0,0,0,0,0,0,0,0,0,0,0,0,0,0,
432,37.313,20.705,7.9551,56.26,32.234,34.478,3.1244,19.095,28.362,24.67,-0.2028,13.653,19.22,8.6027,8.1345,-7.1224,0,0,0,0,0,0,0,0,0,0,0,0,0,0,0,0,
433,30.115,22.537,5.9028,48.934,6.9235,13.328,-1.0234,-0.00197,18.148,2.4737,-11.392,7.5086,3.0481,-6.5644,9.9516,-3.2453,0,0,0,0,0,0,0,0,0,0,0,0,0,0,0,0,
434,-7.0842,1.3663,-24.151,50.608,-4.3898,-3.8225,-30.17,8.8994,-3.0663,-9.7254,4.4186,13.365,11.877,3.2684,6.7691,-10.369,0,0,0,0,0,0,0,0,0,0,0,0,0,0,0,0,
435,14.717,1.1955,-6.2048,70.284,23.297,26.026,7.686,25.8,22.719,23.074,15.23,1.2208,26.707,8.1019,10.587,-28.493,0,0,0,0,0,0,0,0,0,0,0,0,0,0,0,0,
436,10.518,14.024,-5.2577,62.96,12.983,16.875,20.541,-13.299,22.506,19.875,-7.9574,-20.924,7.5369,-16.065,7.4067,-55.617,0,0,0,0,0,0,0,0,0,0,0,0,0,0,0,0,
437,-16.682,-1.1467,-19.311,53.637,9.6697,9.7244,12.394,-26.4,0.29404,-4.3262,-12.144,-8.0688,14.368,1.768,-0.77268,-54.741,0,0,0,0,0,0,0,0,0,0,0,0,0,0,0,0,
438,3.1208,11.682,4.6371,54.315,15.356,18.574,7.2499,22.501,16.083,7.4732,-4.3289,9.7861,14.202,16.602,-4.9505,-25.865,0,0,0,0,0,0,0,0,0,0,0,0,0,0,0,0,
439,9.9239,11.512,-0.4151,58.996,14.044,17.424,-16.894,39.404,13.872,18.274,5.4862,22.643,18.036,33.438,9.873,13.012,0,0,0,0,0,0,0,0,0,0,0,0,0,0,0,0,
440,2.7251,14.339,-25.468,57.675,17.729,17.272,-20.039,-18.695,5.66,22.075,10.302,8.5006,21.871,32.274,22.698,20.889,0,0,0,0,0,0,0,0,0,0,0,0,0,0,0,0,
441,-42.475,-16.835,-42.522,43.355,10.413,18.12,2.8176,-27.795,10.448,23.873,13.117,1.3582,29.706,27.111,22.523,0.76566,0,0,0,0,0,0,0,0,0,0,0,0,0,0,0,0,
442,0.3257,-3.0091,24.425,38.037,23.097,24.967,3.674,-18.896,26.237,11.672,-6.0674,-8.7851,12.542,4.9462,10.349,-17.358,0,0,0,0,0,0,0,0,0,0,0,0,0,0,0,0,
443,25.127,29.816,32.37,55.719,33.781,37.815,15.53,19.001,16.025,7.4713,-1.2502,19.072,18.38,23.783,10.178,-4.4821,0,0,0,0,0,0,0,0,0,0,0,0,0,0,0,0,
444,48.931,37.644,45.318,65.402,36.467,41.665,33.388,5.8993,40.813,35.271,18.568,26.929,42.219,38.62,25.007,22.394,0,0,0,0,0,0,0,0,0,0,0,0,0,0,0,0,
445,47.734,20.471,37.266,53.084,27.153,22.514,18.247,-6.2014,46.601,27.071,12.386,2.787,45.058,18.457,25.838,17.27,0,0,0,0,0,0,0,0,0,0,0,0,0,0,0,0,
446,9.5355,14.296,24.212,54.768,29.836,32.361,-2.8969,28.696,48.39,24.869,26.206,11.644,46.897,20.293,20.67,4.1467,0,0,0,0,0,0,0,0,0,0,0,0,0,0,0,0,
447,4.3352,5.1196,10.157,53.452,31.518,30.207,-3.0387,-2.4034,40.179,26.667,24.027,28.501,29.737,25.13,16.502,8.0229,0,0,0,0,0,0,0,0,0,0,0,0,0,0,0,0,
448,16.134,6.9412,16.101,47.136,32.198,28.051,-3.1804,-2.5065,16.966,24.463,5.8461,28.358,24.578,26.967,17.334,18.898,0,0,0,0,0,0,0,0,0,0,0,0,0,0,0,0,
449,2.9328,0.76255,-3.9551,14.821,17.877,23.893,-14.322,-0.61192,12.754,27.259,-10.335,17.214,19.419,27.803,10.167,24.772,0,0,0,0,0,0,0,0,0,0,0,0,0,0,0,0,
450,9.7312,9.5834,-4.0119,24.505,36.555,37.736,-30.465,2.2839,21.543,47.054,-8.5175,17.07,22.26,33.64,2.9985,15.645,0,0,0,0,0,0,0,0,0,0,0,0,0,0,0,0,
451,19.528,19.404,6.9302,49.189,39.233,41.578,-27.607,6.1784,23.331,37.848,8.3008,16.927,28.102,28.478,7.8316,2.5178,0,0,0,0,0,0,0,0,0,0,0,0,0,0,0,0,
452,14.327,16.224,16.874,47.874,35.911,42.42,16.252,43.072,23.12,32.643,16.12,15.784,34.946,28.316,22.665,10.391,0,0,0,0,0,0,0,0,0,0,0,0,0,0,0,0,
453,54.125,37.043,45.817,55.561,53.589,51.262,34.111,32.966,32.909,38.437,41.939,31.64,51.789,35.152,45.5,41.265,0,0,0,0,0,0,0,0,0,0,0,0,0,0,0,0,
454,36.925,25.863,21.761,42.249,27.268,29.105,14.968,-29.14,34.698,23.23,10.759,-3.5041,20.632,-0.01154,37.334,38.137,0,0,0,0,0,0,0,0,0,0,0,0,0,0,0,0,
455,38.724,27.682,15.704,36.937,20.946,24.947,-15.176,-24.246,7.4855,6.0234,-22.423,0.35186,9.4745,2.8239,15.168,18.008,0,0,0,0,0,0,0,0,0,0,0,0,0,0,0,0,
456,56.521,3.4998,16.646,23.626,22.622,20.788,-9.3208,-16.353,0.27097,-0.18503,-9.6051,-5.7928,5.3159,-0.34174,7.0017,11.877,0,0,0,0,0,0,0,0,0,0,0,0,0,0,0,0,
457,33.32,8.3175,13.587,28.315,17.299,19.629,0.53591,-11.463,3.0569,-0.39357,-7.7868,1.0617,-0.84135,6.4924,10.836,20.746,0,0,0,0,0,0,0,0,0,0,0,0,0,0,0,0,
458,32.119,13.136,4.5278,25.006,19.977,17.471,14.392,-1.574,-2.1564,4.3978,-12.968,7.9149,-7.9984,9.3258,9.6704,30.614,0,0,0,0,0,0,0,0,0,0,0,0,0,0,0,0,
459,49.919,21.956,15.47,27.698,24.656,24.314,17.25,24.316,5.6316,3.1895,-9.1505,2.7682,-1.1547,5.1599,13.506,41.481,0,0,0,0,0,0,0,0,0,0,0,0,0,0,0,0,
460,59.72,32.775,20.413,18.391,20.335,24.157,-30.891,52.205,7.4207,2.9818,2.6683,16.622,6.6909,18.995,33.342,65.349,0,0,0,0,0,0,0,0,0,0,0,0,0,0,0,0,
461,67.522,30.596,19.357,14.086,33.014,31.001,14.968,-8.9041,8.2117,15.775,35.489,38.478,27.539,42.833,63.179,100.22,0,0,0,0,0,0,0,0,0,0,0,0,0,0,0,0,
462,52.323,14.415,25.3,-14.218,13.694,11.845,20.83,-54.013,12.005,20.569,28.311,24.336,5.3882,19.671,68.02,108.09,0,0,0,0,0,0,0,0,0,0,0,0,0,0,0,0,
463,-3.8727,-20.765,-0.75443,-42.52,-17.625,-19.309,-23.306,-24.121,-5.1999,-9.6354,3.1364,27.195,-4.7584,16.513,50.864,86.962,0,0,0,0,0,0,0,0,0,0,0,0,0,0,0,0,
464,-3.0689,-19.944,-4.8085,-31.82,-11.943,-12.464,-18.445,-3.2285,-17.404,-6.8392,-1.0368,39.055,5.0963,30.355,36.71,67.836,0,0,0,0,0,0,0,0,0,0,0,0,0,0,0,0,
465,33.733,17.876,13.136,-14.119,11.737,14.381,-6.5834,19.663,3.3895,22.955,6.7892,34.915,8.9504,26.198,30.555,58.708,0,0,0,0,0,0,0,0,0,0,0,0,0,0,0,0,
466,-2.4647,-5.3052,-5.9205,-29.417,4.417,2.2245,-2.7225,12.552,5.1825,14.748,11.615,30.774,25.804,35.039,36.4,65.578,0,0,0,0,0,0,0,0,0,0,0,0,0,0,0,0,
467,-7.663,-22.487,-15.979,-14.714,-1.9035,-1.9324,-8.8621,26.441,9.9737,20.54,21.438,23.632,37.656,35.878,44.242,77.446,0,0,0,0,0,0,0,0,0,0,0,0,0,0,0,0,
468,-7.8631,2.3299,-16.038,-6.0111,5.775,9.9102,5.9965,33.33,17.764,26.33,27.26,38.489,38.507,33.717,43.084,94.312,0,0,0,0,0,0,0,0,0,0,0,0,0,0,0,0,
469,-7.0621,14.146,-15.097,-2.3072,8.4527,4.7517,-2.146,13.218,6.5541,15.12,-16.919,19.345,11.357,9.5542,22.926,77.177,0,0,0,0,0,0,0,0,0,0,0,0,0,0,0,0,
470,8.7392,11.962,-7.1565,0.39787,13.131,15.593,-27.287,22.103,-7.6549,9.9104,-12.097,5.1994,16.208,8.3906,4.7686,48.042,0,0,0,0,0,0,0,0,0,0,0,0,0,0,0,0,
471,23.541,13.78,3.7847,11.105,28.811,28.437,-7.4262,22.991,22.138,22.701,16.727,7.0547,43.063,20.229,12.611,46.906,0,0,0,0,0,0,0,0,0,0,0,0,0,0,0,0,
472,1.3445,-1.4011,-20.274,14.814,15.492,12.281,5.4332,-5.1225,23.931,24.492,-5.4481,-11.09,26.92,9.0681,16.455,48.769,0,0,0,0,0,0,0,0,0,0,0,0,0,0,0,0,
473,2.1473,-4.5832,-20.332,10.523,3.1715,8.1234,-24.708,-24.238,9.7248,14.283,-14.623,-15.234,12.777,3.9078,4.301,37.633,0,0,0,0,0,0,0,0,0,0,0,0,0,0,0,0,
474,-4.0493,-0.7671,-15.39,-8.7695,3.8505,3.9653,-21.844,-14.352,0.51864,19.074,13.204,-7.377,12.637,7.7491,-4.8507,34.498,0,0,0,0,0,0,0,0,0,0,0,0,0,0,0,0,
475,-26.246,-24.95,-29.448,-12.061,-17.47,-16.193,-15.98,21.535,-15.685,2.8656,-5.9664,-3.5198,5.4983,-2.4089,-7.0002,38.364,0,0,0,0,0,0,0,0,0,0,0,0,0,0,0,0,
476,-40.443,-44.133,-25.508,-8.3499,-24.79,-20.351,-11.118,15.421,-8.8875,-2.3417,-5.1373,-7.6618,5.3611,2.4341,-3.1488,42.231,0,0,0,0,0,0,0,0,0,0,0,0,0,0,0,0,
477,-42.638,-55.316,-33.566,-13.638,-28.109,-31.508,-42.255,6.306,-16.089,-5.5482,-22.308,-10.802,-10.774,-4.7209,-4.2969,38.097,0,0,0,0,0,0,0,0,0,0,0,0,0,0,0,0,
478,-21.835,-37.5,-15.625,12.073,-11.428,-10.666,-6.3905,15.191,-17.291,3.2445,-1.478,-11.942,-0.90889,-15.876,-4.4447,25.963,0,0,0,0,0,0,0,0,0,0,0,0,0,0,0,0,
479,-42.031,-51.684,-15.684,-10.215,-28.747,-29.823,13.473,-24.924,-14.493,-16.964,9.3526,-27.081,-11.042,-37.03,-5.5912,6.8303,0,0,0,0,0,0,0,0,0,0,0,0,0,0,0,0,
480,-33.228,-51.868,-5.7425,-39.501,-44.066,-47.982,17.337,-28.037,-28.694,-40.171,-13.816,-27.219,-26.175,-46.185,-16.735,-5.3021,0,0,0,0,0,0,0,0,0,0,0,0,0,0,0,0,
481,-34.423,-56.052,0.19819,-59.787,-51.386,-55.14,-18.799,-30.154,-33.895,-47.379,-46.985,-31.358,-39.308,-56.339,-35.878,-11.435,0,0,0,0,0,0,0,0,0,0,0,0,0,0,0,0,
482,-25.618,-46.235,-11.86,-27.069,-36.703,-44.297,-58.934,-5.2708,-44.095,-44.585,-32.152,-31.496,-37.439,-48.492,-46.021,-11.569,0,0,0,0,0,0,0,0,0,0,0,0,0,0,0,0,
483,-6.8147,-27.419,-11.919,2.6494,-21.02,-28.454,-1.0674,19.615,-51.296,-28.793,-39.317,-48.634,-50.569,-53.644,-51.163,-15.703,0,0,0,0,0,0,0,0,0,0,0,0,0,0,0,0,
484,8.9905,2.3974,15.021,9.3697,-0.33832,-2.6121,26.797,8.5004,-32.498,-27.001,4.5163,-29.773,-5.6994,-27.798,-28.306,-1.839,0,0,0,0,0,0,0,0,0,0,0,0,0,0,0,0,
485,28.794,12.214,47.961,12.09,25.343,14.229,56.662,-18.616,10.299,-14.209,55.349,4.0881,36.17,4.0484,19.551,30.025,0,0,0,0,0,0,0,0,0,0,0,0,0,0,0,0,
486,61.597,46.029,87.9,48.81,63.025,55.069,112.53,30.27,51.097,22.583,112.18,29.951,79.041,30.896,71.41,67.889,0,0,0,0,0,0,0,0,0,0,0,0,0,0,0,0,
487,87.403,48.845,93.841,50.531,69.707,58.911,115.39,34.155,76.898,35.376,111.02,28.814,79.914,21.745,100.27,82.754,0,0,0,0,0,0,0,0,0,0,0,0,0,0,0,0,
488,61.21,36.662,61.783,24.253,51.391,33.753,77.26,17.039,55.701,26.169,52.853,5.678,36.788,5.5948,76.133,63.621,0,0,0,0,0,0,0,0,0,0,0,0,0,0,0,0,
489,27.017,21.478,9.7232,-0.02369,17.075,7.5954,4.1284,-6.0778,3.5035,3.9614,-17.309,-19.458,-12.335,-14.555,9.996,22.488,0,0,0,0,0,0,0,0,0,0,0,0,0,0,0,0,
490,28.823,5.2935,-7.3362,-12.299,12.759,1.4366,5.996,-26.197,-23.693,-17.245,-29.469,-14.594,-10.458,-14.704,-29.14,4.3533,0,0,0,0,0,0,0,0,0,0,0,0,0,0,0,0,
491,9.6302,2.1088,-3.3954,-7.5732,5.4428,-6.7226,-16.136,12.686,-11.89,-20.451,-24.63,-7.7291,-9.5795,-13.852,-27.274,10.219,0,0,0,0,0,0,0,0,0,0,0,0,0,0,0,0,
492,-13.564,-31.076,-17.455,-46.845,-35.873,-43.881,-37.268,-31.429,-22.089,-25.657,-40.792,-21.864,-46.701,-35.999,-26.408,1.0846,0,0,0,0,0,0,0,0,0,0,0,0,0,0,0,0,
493,-13.758,-50.262,-26.516,-67.116,-45.188,-60.04,-57.4,-65.546,-59.285,-51.863,-53.954,-63.998,-68.822,-71.147,-48.542,-45.051,0,0,0,0,0,0,0,0,0,0,0,0,0,0,0,0,
494,-22.951,-28.447,-26.575,-37.385,-34.502,-44.199,-42.53,-50.663,-59.48,-65.069,-59.114,-59.132,-66.941,-73.293,-62.676,-76.187,0,0,0,0,0,0,0,0,0,0,0,0,0,0,0,0,
495,-9.1428,-12.63,-22.635,-19.653,-11.816,-21.357,-33.659,-13.778,-52.674,-54.274,-39.275,-24.265,-51.061,-45.439,-51.809,-57.323,0,0,0,0,0,0,0,0,0,0,0,0,0,0,0,0,
496,17.664,11.184,-7.6956,-14.919,15.87,2.483,0.20796,-3.8941,-35.87,-29.479,-18.436,-11.398,-18.179,-28.585,-20.942,-23.457,0,0,0,0,0,0,0,0,0,0,0,0,0,0,0,0,
497,15.471,7.9997,14.244,-18.185,5.5567,-1.6756,-5.9238,-40.012,-14.064,-27.683,-19.595,-16.531,-5.2975,-33.73,-8.074,-8.5929,0,0,0,0,0,0,0,0,0,0,0,0,0,0,0,0,
498,4.2811,-5.1842,3.1842,-28.447,2.2452,-9.8328,23.947,-30.128,-0.25793,-27.887,10.247,-24.661,17.587,-24.872,-8.2062,-19.729,0,0,0,0,0,0,0,0,0,0,0,0,0,0,0,0,
499,3.0893,-14.368,11.124,-35.708,9.9341,-3.9902,18.819,30.756,24.548,-24.09,17.089,-45.792,30.472,-32.013,-10.338,-44.864,0,0,0,0,0,0,0,0,0,0,0,0,0,0,0,0,
500,20.897,9.4471,20.063,-33.969,18.622,6.8516,-4.3126,-30.361,37.354,-22.292,1.9294,-32.924,20.356,-36.156,-14.468,-56,0,0,0,0,0,0,0,0,0,0,0,0,0,0,0,0,
501,-5.2948,5.2638,-23.998,-47.227,4.3109,-16.307,-27.441,-96.478,7.1593,-38.494,-22.228,-35.055,-8.7585,-46.298,-27.596,-51.135,0,0,0,0,0,0,0,0,0,0,0,0,0,0,0,0,
502,-30.485,-10.919,-26.058,-37.483,2.001,-9.4645,-22.568,-39.595,-18.033,-41.697,-3.3839,-25.185,1.1293,-27.439,-24.724,-29.269,0,0,0,0,0,0,0,0,0,0,0,0,0,0,0,0,
503,10.326,2.8974,19.881,-19.738,25.692,11.378,1.3018,-12.713,13.776,-10.9,24.462,-25.316,18.018,-18.581,-6.8499,-9.4037,0,0,0,0,0,0,0,0,0,0,0,0,0,0,0,0,
504,-32.862,-28.285,-9.1798,-39.992,4.3852,-16.777,6.174,-36.831,6.5873,-25.102,-7.6909,-26.447,0.90974,-28.723,-5.9743,-18.538,0,0,0,0,0,0,0,0,0,0,0,0,0,0,0,0,
505,-33.05,-32.466,-0.23933,-49.244,-1.9202,-10.932,4.0471,9.0531,6.3978,-28.304,1.1561,-8.5772,13.802,-8.864,-2.0977,-21.672,0,0,0,0,0,0,0,0,0,0,0,0,0,0,0,0,
506,6.7637,-13.648,18.701,-27.496,18.774,0.91315,13.918,20.935,21.21,-6.5054,15.002,8.2921,20.695,0.99528,11.779,-8.8055,0,0,0,0,0,0,0,0,0,0,0,0,0,0,0,0,
507,-24.423,-33.828,-1.3588,-46.745,-0.53013,-20.242,-1.2071,-59.182,5.0216,-13.706,-4.1508,-0.83633,-9.411,-19.144,7.6563,-4.9386,0,0,0,0,0,0,0,0,0,0,0,0,0,0,0,0,
508,-45.609,-45.008,-9.4182,-57.993,-17.834,-34.396,-9.3323,-55.3,-14.166,-28.906,-23.302,-35.963,-34.515,-41.281,-21.466,-26.071,0,0,0,0,0,0,0,0,0,0,0,0,0,0,0,0,
509,-33.794,-38.188,-10.478,-49.24,-17.137,-40.55,-15.456,-51.419,-33.352,-59.106,-5.4543,-38.091,-22.62,-43.419,-46.588,-49.203,0,0,0,0,0,0,0,0,0,0,0,0,0,0,0,0,
510,-14.979,-19.369,18.462,-37.487,0.56022,-16.705,19.419,-34.535,-14.539,-49.306,9.3937,-54.217,-4.7244,-45.555,-40.709,-59.335,0,0,0,0,0,0,0,0,0,0,0,0,0,0,0,0,
511,29.836,-0.54982,31.402,-4.7329,19.256,2.1395,-1.7076,-3.651,4.2729,-28.505,0.24252,-47.343,-3.8276,-42.691,-21.83,-61.468,0,0,0,0,0,0,0,0,0,0,0,0,0,0,0,0,
512,24.65,2.2675,33.341,6.0216,21.953,-1.017,10.167,-14.77,-0.91391,-21.704,-18.908,-57.47,-26.931,-64.828,-20.951,-67.6,0,0,0,0,0,0,0,0,0,0,0,0,0,0,0,0,
513,-1.5355,9.0858,50.28,-7.2209,14.651,-5.1718,5.0447,-9.8869,1.901,-41.901,-0.05734,-61.596,-17.031,-62.963,-22.07,-65.732,0,0,0,0,0,0,0,0,0,0,0,0,0,0,0,0,
514,-5.7211,9.9051,33.22,18.538,14.351,-9.3257,17.921,10.996,1.7178,-42.098,6.7942,-62.721,-14.13,-59.096,-24.188,-61.863,0,0,0,0,0,0,0,0,0,0,0,0,0,0,0,0,
515,24.094,26.724,25.161,58.299,26.052,4.5207,19.799,23.88,-5.4638,-33.293,-23.354,-57.846,-18.229,-50.23,-26.305,-55.996,0,0,0,0,0,0,0,0,0,0,0,0,0,0,0,0,
516,46.911,20.543,31.103,45.062,37.754,20.368,14.68,-8.2343,17.355,-13.488,-9.4994,-34.97,-1.3244,-28.362,-12.422,-40.128,0,0,0,0,0,0,0,0,0,0,0,0,0,0,0,0,
517,34.728,35.362,43.045,54.826,60.457,38.215,11.559,1.6517,22.175,10.317,21.357,3.908,27.582,11.507,22.463,2.7399,0,0,0,0,0,0,0,0,0,0,0,0,0,0,0,0,
518,34.546,48.182,51.987,56.592,56.162,37.063,26.441,4.5354,36.996,26.122,28.214,-8.214,27.49,8.3763,49.348,39.608,0,0,0,0,0,0,0,0,0,0,0,0,0,0,0,0,
519,26.364,26.002,38.929,40.359,39.867,21.911,22.322,-3.5837,23.816,2.9253,21.07,-22.338,5.3967,-11.757,39.235,21.475,0,0,0,0,0,0,0,0,0,0,0,0,0,0,0,0,
520,65.182,44.823,62.871,43.128,59.572,38.759,34.204,5.2984,19.636,2.7298,40.927,-25.462,7.3033,-11.89,24.122,-10.657,0,0,0,0,0,0,0,0,0,0,0,0,0,0,0,0,
521,99.001,79.644,84.813,70.899,82.278,62.607,38.085,1.1837,43.457,17.535,36.784,-16.586,8.2108,-10.022,23.009,-26.789,0,0,0,0,0,0,0,0,0,0,0,0,0,0,0,0,
522,89.82,75.465,62.754,60.671,86.985,62.455,39.965,31.068,41.278,24.341,34.641,-4.7081,7.1196,1.8482,24.895,-17.921,0,0,0,0,0,0,0,0,0,0,0,0,0,0,0,0,
523,57.639,83.285,83.696,98.443,102.69,80.303,69.846,75.951,49.101,45.148,48.499,14.171,35.03,36.719,29.783,4.9462,0,0,0,0,0,0,0,0,0,0,0,0,0,0,0,0,
524,89.46,82.107,96.637,101.21,102.4,83.152,67.729,31.833,79.925,65.956,51.357,21.05,59.943,59.591,41.672,23.814,0,0,0,0,0,0,0,0,0,0,0,0,0,0,0,0,
525,91.281,67.927,78.578,77.988,92.112,65,35.613,-2.2849,87.749,63.764,60.215,21.929,68.856,60.463,56.561,28.681,0,0,0,0,0,0,0,0,0,0,0,0,0,0,0,0,
526,66.102,75.749,76.519,82.763,79.823,58.849,66.495,-0.40314,69.575,39.571,67.074,29.808,73.77,54.336,66.451,25.55,0,0,0,0,0,0,0,0,0,0,0,0,0,0,0,0,
527,80.923,94.571,88.461,98.54,95.534,72.698,82.379,27.48,82.4,46.379,83.935,34.688,86.687,58.21,72.341,33.419,0,0,0,0,0,0,0,0,0,0,0,0,0,0,0,0,
528,68.747,67.395,68.404,78.319,76.247,48.548,46.263,4.3648,79.227,42.189,54.797,18.569,51.604,31.085,51.232,19.288,0,0,0,0,0,0,0,0,0,0,0,0,0,0,0,0,
529,47.574,41.22,40.346,63.098,46.961,28.397,29.147,9.2464,35.054,19.998,20.659,27.451,24.521,25.96,22.124,0.1566,0,0,0,0,0,0,0,0,0,0,0,0,0,0,0,0,
530,60.399,45.046,60.288,42.879,59.675,38.247,63.032,33.129,39.883,28.807,47.521,46.333,47.439,50.836,24.017,16.025,0,0,0,0,0,0,0,0,0,0,0,0,0,0,0,0,
531,10.223,37.873,13.23,60.661,31.39,8.0973,15.917,26.012,28.713,25.618,7.3835,28.215,7.3573,23.711,26.91,35.893,0,0,0,0,0,0,0,0,0,0,0,0,0,0,0,0,
532,8.0498,48.7,-8.828,65.446,18.107,6.9487,-3.1989,1.8942,-18.456,7.4298,10.246,39.097,17.275,38.588,32.803,58.761,0,0,0,0,0,0,0,0,0,0,0,0,0,0,0,0,
533,53.878,46.53,39.114,73.231,45.826,26.8,3.6865,7.7771,14.375,27.243,39.11,50.98,35.194,51.464,36.697,63.628,0,0,0,0,0,0,0,0,0,0,0,0,0,0,0,0,
534,49.708,64.36,31.058,84.018,52.545,41.652,16.572,22.66,12.205,42.056,20.974,42.863,15.113,35.34,24.59,44.495,0,0,0,0,0,0,0,0,0,0,0,0,0,0,0,0,
535,51.539,74.19,28.001,87.806,64.264,53.504,14.456,17.542,21.037,36.868,23.837,24.745,26.033,27.216,10.483,16.361,0,0,0,0,0,0,0,0,0,0,0,0,0,0,0,0,
536,66.368,64.021,20.944,89.595,61.983,48.354,-7.6597,2.4247,21.868,31.68,7.6991,16.628,18.952,21.091,6.3748,-4.7732,0,0,0,0,0,0,0,0,0,0,0,0,0,0,0,0,
537,62.199,64.851,16.887,88.385,50.704,46.205,-16.772,-0.69175,7.6993,21.493,3.5614,33.51,18.872,33.967,17.266,5.0918,0,0,0,0,0,0,0,0,0,0,0,0,0,0,0,0,
538,22.03,44.682,-10.169,65.175,26.426,19.057,1.116,-1.8102,3.5324,11.306,4.4247,23.394,8.7946,22.845,22.158,22.957,0,0,0,0,0,0,0,0,0,0,0,0,0,0,0,0,
539,14.861,44.511,-5.2267,53.966,28.148,23.908,-10.999,48.07,1.367,11.121,13.289,36.278,17.719,42.724,25.051,45.822,0,0,0,0,0,0,0,0,0,0,0,0,0,0,0,0,
540,33.692,50.341,7.7154,42.759,35.871,33.759,-47.112,17.955,17.203,34.937,7.1538,42.162,15.644,45.605,17.945,50.688,0,0,0,0,0,0,0,0,0,0,0,0,0,0,0,0,
541,26.523,31.172,-10.343,44.555,27.596,20.611,-24.224,-16.158,-4.9603,20.754,-8.9796,48.048,8.5712,41.486,14.84,50.555,0,0,0,0,0,0,0,0,0,0,0,0,0,0,0,0,
542,25.355,30.004,-20.4,44.351,24.321,24.463,-23.336,10.726,-16.123,8.5708,-4.1124,17.932,4.4989,21.366,12.737,28.422,0,0,0,0,0,0,0,0,0,0,0,0,0,0,0,0,
543,18.187,40.836,-26.458,52.149,23.047,25.314,-37.444,20.606,-19.286,11.386,2.7568,-7.1824,-5.5716,8.2472,4.6346,-13.712,0,0,0,0,0,0,0,0,0,0,0,0,0,0,0,0,
544,-12.981,43.667,-31.516,35.947,7.7743,5.1659,-44.556,-14.514,-33.447,2.2006,-20.375,0.70337,-14.641,9.1278,-8.4673,-37.846,0,0,0,0,0,0,0,0,0,0,0,0,0,0,0,0,
545,3.8527,30.499,-8.5731,28.748,10.503,17.019,-25.667,2.3704,-21.608,7.0168,-25.506,1.5898,-9.7107,10.01,-17.569,-40.98,0,0,0,0,0,0,0,0,0,0,0,0,0,0,0,0,
546,25.688,38.333,-10.629,43.552,23.235,22.874,-16.776,8.2562,-11.768,13.836,-38.637,1.477,-18.779,1.8929,-24.671,-30.114,0,0,0,0,0,0,0,0,0,0,0,0,0,0,0,0,
547,20.524,39.168,-5.6844,66.359,20.969,22.731,-61.886,29.14,-22.926,5.6562,-32.765,-1.6342,-15.845,2.7776,-24.772,-9.2479,0,0,0,0,0,0,0,0,0,0,0,0,0,0,0,0,
548,13.361,36.005,-6.739,64.169,20.706,27.589,-23.993,12.026,-17.083,9.4795,-2.8939,1.2552,-4.9102,5.6639,-3.8719,15.619,0,0,0,0,0,0,0,0,0,0,0,0,0,0,0,0,
549,1.1995,35.842,-6.7927,47.981,27.444,27.448,-17.099,-20.088,-12.239,6.3046,-5.0224,-12.855,-7.9748,-2.4492,12.028,24.487,0,0,0,0,0,0,0,0,0,0,0,0,0,0,0,0,
550,-1.9617,23.68,-2.8455,14.793,6.1844,10.309,-20.203,18.8,-13.393,-4.8694,-16.15,-39.966,-19.038,-18.562,10.929,21.354,0,0,0,0,0,0,0,0,0,0,0,0,0,0,0,0,
551,13.879,26.518,11.103,10.607,5.9262,8.1697,-15.306,-4.3097,-8.5457,-10.042,-13.275,-14.076,-13.098,-3.6732,8.8299,28.222,0,0,0,0,0,0,0,0,0,0,0,0,0,0,0,0,
552,-22.28,12.357,-14.949,19.421,-1.3315,-0.96999,-45.409,-36.421,-18.698,-11.215,-26.401,-6.1857,-19.158,-1.7841,1.7319,37.09,0,0,0,0,0,0,0,0,0,0,0,0,0,0,0,0,
553,0.56134,19.196,-7.0016,22.236,0.41131,4.8905,-12.513,9.4644,-29.848,-5.3869,-27.525,-17.294,-21.216,-9.8939,-6.3653,23.959,0,0,0,0,0,0,0,0,0,0,0,0,0,0,0,0,
554,0.40314,16.036,2.9467,-2.9465,0.15521,-2.2492,3.3867,-12.65,-20.998,-9.5588,-13.647,-10.401,-8.2719,-10.002,1.5386,4.8288,0,0,0,0,0,0,0,0,0,0,0,0,0,0,0,0,
555,-11.755,11.876,-17.105,-21.128,-10.1,-11.389,-30.713,-25.764,-20.147,-27.73,-29.77,-29.508,-31.327,-37.108,2.4431,-13.301,0,0,0,0,0,0,0,0,0,0,0,0,0,0,0,0,
556,-6.9132,14.716,-20.157,-17.308,-21.353,-18.527,-33.814,-39.876,-45.295,-46.9,-27.893,-44.614,-44.381,-59.214,-11.652,-42.429,0,0,0,0,0,0,0,0,0,0,0,0,0,0,0,0,
557,-8.0693,12.558,1.792,-13.486,-15.604,-17.664,-22.915,-49.985,-56.443,-44.069,-39.016,-41.719,-46.435,-45.32,-25.746,-55.558,0,0,0,0,0,0,0,0,0,0,0,0,0,0,0,0,
558,15.777,7.4017,7.7418,-32.662,-21.851,-19.798,-35.016,-54.095,-46.588,-39.237,-46.136,-57.824,-48.486,-61.425,-32.84,-56.687,0,0,0,0,0,0,0,0,0,0,0,0,0,0,0,0,
559,14.624,21.246,8.692,-22.837,-22.097,-19.932,-26.115,-32.205,-42.731,-62.403,-24.255,-45.928,-27.536,-44.529,-28.932,-49.814,0,0,0,0,0,0,0,0,0,0,0,0,0,0,0,0,
560,24.473,43.091,21.643,0.98986,10.66,8.9359,5.7901,4.6835,-21.873,-21.568,-18.371,-19.031,-7.583,-9.6319,-23.023,-31.941,0,0,0,0,0,0,0,0,0,0,0,0,0,0,0,0,
561,38.321,55.937,22.594,6.8183,21.417,24.803,1.6926,-28.428,-6.0132,6.2672,-27.488,-26.135,-10.631,-16.735,-27.112,-32.067,0,0,0,0,0,0,0,0,0,0,0,0,0,0,0,0,
562,14.168,44.783,10.544,7.6472,12.174,10.67,14.595,0.4614,-9.155,-4.8969,-17.605,-3.238,-6.6776,-2.8376,-27.202,-17.194,0,0,0,0,0,0,0,0,0,0,0,0,0,0,0,0,
563,11.017,26.629,10.496,-6.5207,-8.0652,-9.4607,-52.498,20.354,-24.296,-10.06,-47.72,-1.3392,-27.722,-5.9374,-29.291,-2.3192,0,0,0,0,0,0,0,0,0,0,0,0,0,0,0,0,
564,-0.13027,23.478,-2.5496,-26.686,-24.301,-18.589,-51.589,-53.753,-47.433,-25.218,-29.831,-0.43811,-19.762,-2.0342,-23.377,3.5581,0,0,0,0,0,0,0,0,0,0,0,0,0,0,0,0,
565,15.722,22.327,15.405,-21.85,3.4645,1.2831,-17.681,-24.859,-24.568,-8.3765,-1.9393,18.465,16.199,28.871,1.54,15.438,0,0,0,0,0,0,0,0,0,0,0,0,0,0,0,0,
566,27.576,31.176,12.36,-1.0109,15.23,18.155,-35.77,-9.9639,13.298,20.466,-12.047,8.3693,14.161,19.776,13.458,11.319,0,0,0,0,0,0,0,0,0,0,0,0,0,0,0,0,
567,22.431,36.028,7.3153,1.8305,16.999,19.028,-9.8575,-11.068,8.1654,15.311,-11.153,-11.725,7.125,6.6842,10.376,-2.8009,0,0,0,0,0,0,0,0,0,0,0,0,0,0,0,0,
568,22.286,24.881,-0.72851,-11.327,17.769,14.901,-36.946,1.8254,-5.9649,-1.8438,-20.258,-10.819,-0.91043,3.5914,-8.7051,-24.921,0,0,0,0,0,0,0,0,0,0,0,0,0,0,0,0,
569,47.14,51.732,11.226,13.516,30.539,32.775,-4.0342,13.719,7.9038,17.001,6.6332,10.085,4.0525,7.4975,-12.788,-24.043,0,0,0,0,0,0,0,0,0,0,0,0,0,0,0,0,
570,15.994,36.583,5.1791,-4.6389,12.309,8.6467,-0.12425,-0.38384,5.7705,8.8448,-6.4775,-2.0111,-6.9847,-9.596,-3.8726,-12.167,0,0,0,0,0,0,0,0,0,0,0,0,0,0,0,0,
571,11.847,36.433,11.131,-4.7927,3.0805,2.5189,-34.216,-27.488,-15.363,-10.31,-17.588,-15.108,-12.022,-20.69,6.0412,-9.2922,0,0,0,0,0,0,0,0,0,0,0,0,0,0,0,0,
572,29.702,41.284,13.084,4.0566,11.854,17.393,-21.306,-24.59,-11.496,-17.464,-1.6982,-14.203,15.941,-3.782,17.955,-5.4182,0,0,0,0,0,0,0,0,0,0,0,0,0,0,0,0,
573,41.559,44.138,16.039,2.9084,32.631,28.269,-7.3934,-38.692,20.373,3.3852,18.193,0.70255,34.907,11.128,27.869,4.457,0,0,0,0,0,0,0,0,0,0,0,0,0,0,0,0,
574,29.417,25.994,7.9946,1.7612,17.41,17.147,-12.48,-50.795,14.245,-3.7645,-15.913,-16.391,-6.1252,-8.9617,13.785,10.334,0,0,0,0,0,0,0,0,0,0,0,0,0,0,0,0,
575,20.276,32.849,0.94991,-3.3853,12.19,14.024,-12.565,-15.898,-3.8811,-11.914,-22.018,4.5175,-7.1554,5.9512,-4.2982,24.212,0,0,0,0,0,0,0,0,0,0,0,0,0,0,0,0,
576,5.1331,22.704,-3.0949,-12.531,8.9711,2.9012,6.3501,21.001,-5.0065,9.9394,-0.12217,0.42743,-2.1842,6.8654,-8.3794,34.092,0,0,0,0,0,0,0,0,0,0,0,0,0,0,0,0,
577,8.992,19.559,5.8603,-14.675,-0.24736,2.7783,2.2646,-41.102,-2.1312,5.7927,8.7725,0.33704,8.7863,6.7785,0.53929,24.972,0,0,0,0,0,0,0,0,0,0,0,0,0,0,0,0,
578,24.85,26.414,15.816,-1.8183,19.535,17.655,21.181,-41.202,21.743,9.645,7.6693,4.2473,29.759,20.693,17.458,16.852,0,0,0,0,0,0,0,0,0,0,0,0,0,0,0,0,
579,22.71,19.272,19.775,-1.9575,25.321,20.534,43.101,-6.2992,34.621,9.5002,22.569,5.1588,36.735,17.61,27.378,9.7324,0,0,0,0,0,0,0,0,0,0,0,0,0,0,0,0,
580,15.573,36.131,53.732,17.904,29.108,29.414,48.02,-7.3982,59.501,16.357,32.469,9.0707,37.711,22.527,31.299,12.614,0,0,0,0,0,0,0,0,0,0,0,0,0,0,0,0,
581,22.434,27.99,35.689,16.767,37.897,29.294,51.938,-7.4964,45.38,30.214,28.369,19.984,31.688,31.445,33.221,28.495,0,0,0,0,0,0,0,0,0,0,0,0,0,0,0,0,
582,49.296,34.849,43.646,12.632,46.687,42.176,39.856,-14.593,42.26,35.072,21.269,-0.10427,12.664,9.3621,20.142,24.376,0,0,0,0,0,0,0,0,0,0,0,0,0,0,0,0,
583,47.159,50.71,53.603,6.4988,49.478,42.057,53.778,-13.691,45.14,24.93,31.17,-20.192,13.641,-4.72,2.0618,8.2563,0,0,0,0,0,0,0,0,0,0,0,0,0,0,0,0,
584,28.025,41.572,61.562,9.3674,53.274,39.942,46.699,0.21149,53.022,20.79,26.07,-25.277,23.62,-3.8001,-0.01729,3.1373,0,0,0,0,0,0,0,0,0,0,0,0,0,0,0,0,
585,45.891,41.436,64.523,16.238,39.072,30.828,56.619,17.114,55.907,15.653,47.972,-23.361,38.602,6.1215,18.905,16.02,0,0,0,0,0,0,0,0,0,0,0,0,0,0,0,0,
586,43.759,32.301,47.483,-1.8906,25.872,12.715,41.541,-3.9816,46.794,23.517,45.875,0.55559,38.585,20.044,27.829,39.903,0,0,0,0,0,0,0,0,0,0,0,0,0,0,0,0,
587,-9.3742,8.1651,9.4438,-17.019,4.673,-6.3981,36.468,-25.075,26.682,17.381,25.781,19.473,25.57,19.968,23.755,64.788,0,0,0,0,0,0,0,0,0,0,0,0,0,0,0,0,
588,9.4948,32.03,13.406,13.855,19.476,12.49,50.394,-5.1659,29.572,14.249,30.688,16.393,33.557,17.894,19.682,60.674,0,0,0,0,0,0,0,0,0,0,0,0,0,0,0,0,
589,7.3648,21.896,7.3689,-6.2688,23.281,7.3783,13.32,-18.259,32.462,15.118,31.596,4.3123,23.546,5.8214,16.609,37.561,0,0,0,0,0,0,0,0,0,0,0,0,0,0,0,0,
590,0.2354,5.7635,11.332,-10.39,20.088,11.269,2.249,-15.351,21.354,1.988,2.5057,-10.768,1.5361,-9.2506,3.5368,11.447,0,0,0,0,0,0,0,0,0,0,0,0,0,0,0,0,
591,16.108,4.6331,-11.704,-5.5098,17.898,7.1604,4.1791,-3.4426,18.248,2.8596,2.4162,1.152,-3.472,1.6781,-2.5352,7.3322,0,0,0,0,0,0,0,0,0,0,0,0,0,0,0,0,
592,-3.0178,10.503,0.25984,8.3717,14.708,2.0514,14.107,23.463,8.1417,8.7312,29.326,24.071,11.519,27.606,13.392,29.217,0,0,0,0,0,0,0,0,0,0,0,0,0,0,0,0,
593,5.8551,13.373,-10.778,16.254,5.5189,-3.0575,-18.965,46.37,4.0353,17.602,6.2346,22.99,3.509,33.532,23.318,56.1,0,0,0,0,0,0,0,0,0,0,0,0,0,0,0,0,
594,-7.2731,13.243,-20.815,29.138,8.3319,-1.1656,-18.036,3.2799,-22.071,12.473,6.1428,40.909,26.499,56.459,26.243,69.983,0,0,0,0,0,0,0,0,0,0,0,0,0,0,0,0,
595,10.601,3.1158,6.1476,28.026,19.147,7.7277,5.892,-42.811,15.823,21.345,42.05,31.826,54.488,52.384,32.165,74.865,0,0,0,0,0,0,0,0,0,0,0,0,0,0,0,0,
596,15.476,-12.011,6.1101,21.914,6.9632,-3.3786,13.822,-19.902,36.716,10.217,34.956,13.742,46.476,28.309,36.086,67.745,0,0,0,0,0,0,0,0,0,0,0,0,0,0,0,0,
597,-4.649,-18.138,-16.927,19.805,2.781,-13.485,28.75,-19.991,18.609,4.09,12.862,-0.34002,28.464,13.234,27.006,41.624,0,0,0,0,0,0,0,0,0,0,0,0,0,0,0,0,
598,-12.771,4.738,2.0379,28.698,12.602,0.41226,0.67906,3.9205,21.504,17.966,16.773,14.58,21.456,15.163,15.928,19.504,0,0,0,0,0,0,0,0,0,0,0,0,0,0,0,0,
599,-20.892,-2.3847,-6.9957,16.595,0.42667,-13.689,5.613,-0.16592,4.4023,9.8438,24.685,33.502,21.451,27.094,14.853,18.387,0,0,0,0,0,0,0,0,0,0,0,0,0,0,0,0,
600,-17.011,-8.5053,-27.028,0.49507,-10.746,-28.787,8.548,-5.2494,-6.6961,6.7254,23.599,15.427,3.4492,4.0281,7.78,21.274,0,0,0,0,0,0,0,0,0,0,0,0,0,0,0,0,
601,-23.128,-19.625,-37.061,-18.602,-19.916,-28.885,-14.516,15.669,-16.792,-6.3898,15.517,9.355,-0.54942,0.96549,-3.2909,17.163,0,0,0,0,0,0,0,0,0,0,0,0,0,0,0,0,
602,-3.2446,-21.743,-23.092,2.3029,-6.083,-18.981,-12.577,30.588,-7.8843,16.497,18.436,13.284,11.454,13.905,-4.3603,16.053,0,0,0,0,0,0,0,0,0,0,0,0,0,0,0,0,
603,9.6384,-1.8599,-19.123,20.211,1.7517,-9.0751,-15.637,17.509,-9.9758,22.386,5.3556,3.2144,2.459,12.846,-1.4287,16.945,0,0,0,0,0,0,0,0,0,0,0,0,0,0,0,0,
604,-6.4746,4.0247,-23.152,21.121,2.5886,-2.1683,23.304,3.4285,-1.0656,24.277,14.277,-0.85551,5.4652,15.787,3.5037,18.837,0,0,0,0,0,0,0,0,0,0,0,0,0,0,0,0,
605,-18.588,-9.0898,-38.182,5.0317,-1.5729,-14.261,-16.754,-12.652,5.845,18.167,20.196,11.073,12.47,25.727,15.435,23.728,0,0,0,0,0,0,0,0,0,0,0,0,0,0,0,0,
606,-37.7,-27.203,-65.21,-11.055,-10.732,-18.352,-33.814,-9.7281,-5.2449,10.058,9.115,13.003,-2.5266,20.667,10.364,20.616,0,0,0,0,0,0,0,0,0,0,0,0,0,0,0,0,
607,-32.811,-31.315,-75.238,-27.14,-16.888,-24.442,-19.873,-6.8059,-10.334,5.9507,3.035,18.933,2.4777,26.606,5.2923,14.504,0,0,0,0,0,0,0,0,0,0,0,0,0,0,0,0,
608,-39.923,-39.427,-68.267,-28.222,-21.044,-33.532,-1.9307,-8.8843,-11.423,8.843,2.9536,12.862,5.4811,25.545,3.2201,10.391,0,0,0,0,0,0,0,0,0,0,0,0,0,0,0,0,
609,-35.033,-31.539,-50.295,-26.301,-27.198,-33.621,-2.9887,-7.962,-9.5112,8.7365,-0.12647,-0.20916,5.4858,8.4828,-1.8523,-7.7223,0,0,0,0,0,0,0,0,0,0,0,0,0,0,0,0,
610,-40.141,-36.648,-39.322,-22.379,-28.35,-36.708,-16.046,-1.0396,-11.598,1.6305,-2.2058,-3.2801,11.491,3.4215,-7.9251,-25.836,0,0,0,0,0,0,0,0,0,0,0,0,0,0,0,0,
611,-35.249,-35.757,-33.349,-26.457,-43.499,-50.795,4.898,8.884,-14.684,-6.4741,1.7138,-18.351,3.496,-10.64,-11.999,-35.949,0,0,0,0,0,0,0,0,0,0,0,0,0,0,0,0,
612,-49.357,-51.865,-42.375,-51.534,-68.649,-72.882,11.843,-44.192,-18.77,-38.579,-1.3663,-39.421,-8.4989,-42.701,-19.074,-47.063,0,0,0,0,0,0,0,0,0,0,0,0,0,0,0,0,
613,-54.465,-54.974,-49.401,-47.609,-67.796,-76.969,-12.211,-44.265,-36.853,-50.682,-0.44491,-37.49,-5.4917,-38.761,-20.149,-50.176,0,0,0,0,0,0,0,0,0,0,0,0,0,0,0,0,
614,-44.574,-52.083,-55.428,-34.681,-61.944,-64.056,1.7376,-41.339,-33.935,-32.785,7.4771,-29.56,-9.4837,-27.82,-15.223,-39.288,0,0,0,0,0,0,0,0,0,0,0,0,0,0,0,0,
615,-23.682,-29.191,-42.454,-21.753,-39.09,-43.142,1.6848,-50.415,-20.016,-33.888,24.401,-11.628,-7.475,-9.8789,-4.2974,-24.401,0,0,0,0,0,0,0,0,0,0,0,0,0,0,0,0,
616,-28.79,-13.299,-40.481,-10.823,-26.234,-35.228,-1.3667,-23.489,-18.097,-19.989,19.324,11.304,3.5341,14.063,13.629,-2.5131,0,0,0,0,0,0,0,0,0,0,0,0,0,0,0,0,
617,-7.8968,12.594,-22.507,-9.8919,-9.3766,-10.314,10.583,-9.5605,-5.1776,1.9102,27.248,11.236,16.544,19.005,34.556,19.375,0,0,0,0,0,0,0,0,0,0,0,0,0,0,0,0,
618,19.997,14.487,-8.5333,2.0408,12.482,4.6011,19.532,25.367,11.741,16.81,49.173,36.169,38.555,42.949,57.484,43.264,0,0,0,0,0,0,0,0,0,0,0,0,0,0,0,0,
619,31.891,25.383,-0.55973,13.977,22.343,13.517,57.481,57.295,34.662,46.712,64.099,61.101,59.568,72.892,81.412,72.154,0,0,0,0,0,0,0,0,0,0,0,0,0,0,0,0,
620,14.786,11.279,10.413,23.913,20.204,17.433,72.431,57.223,49.584,65.614,56.025,61.034,68.58,67.836,81.34,80.043,0,0,0,0,0,0,0,0,0,0,0,0,0,0,0,0,
621,12.681,8.1753,13.387,16.85,21.068,10.351,27.381,26.153,68.506,61.517,26.95,36.969,55.594,34.781,46.267,46.934,0,0,0,0,0,0,0,0,0,0,0,0,0,0,0,0,
622,-6.4231,7.0731,-9.6381,6.7908,1.9339,-1.7299,-0.66796,-4.9174,34.429,18.423,-45.125,8.9036,-5.3932,-6.2734,-25.807,-13.176,0,0,0,0,0,0,0,0,0,0,0,0,0,0,0,0,
623,-6.5234,15.972,-21.662,-3.2672,8.8026,3.1906,-13.715,9.0149,12.352,15.331,-51.198,7.8389,-18.378,-8.3269,-66.88,-47.285,0,0,0,0,0,0,0,0,0,0,0,0,0,0,0,0,
624,-22.623,-19.127,-60.685,-40.324,-28.327,-35.888,-39.763,-22.052,-10.721,-10.761,-60.271,-17.225,-32.361,-25.379,-68.954,-60.394,0,0,0,0,0,0,0,0,0,0,0,0,0,0,0,0,
625,-20.723,-18.225,-34.707,-38.379,-22.454,-21.965,-7.8107,-9.118,-11.793,-18.851,-17.342,13.711,14.656,14.568,-33.026,-34.502,0,0,0,0,0,0,0,0,0,0,0,0,0,0,0,0,
626,-12.822,-1.3241,-7.7301,-32.434,-1.5807,-10.044,22.144,-7.1859,18.137,15.058,-5.413,0.64704,22.674,8.5162,-6.0981,-7.6104,0,0,0,0,0,0,0,0,0,0,0,0,0,0,0,0,
627,-23.923,-20.423,-23.755,-29.487,-18.707,-26.122,-9.9006,-21.252,0.06716,-6.0322,6.5168,6.5845,9.6934,3.4653,-1.1696,6.2825,0,0,0,0,0,0,0,0,0,0,0,0,0,0,0,0,
628,-29.022,-4.5201,-21.777,-14.538,-5.83,-7.1984,-2.9439,9.6853,9.9998,17.88,17.449,42.523,17.714,36.416,1.7595,19.176,0,0,0,0,0,0,0,0,0,0,0,0,0,0,0,0,
629,-29.119,-8.6174,-38.8,-14.589,6.0483,-2.2747,10.013,39.62,7.9329,45.794,4.3809,36.461,11.735,36.366,4.6883,25.07,0,0,0,0,0,0,0,0,0,0,0,0,0,0,0,0,
630,-17.218,-3.7142,-23.823,-11.637,11.927,10.649,25.97,30.556,1.8651,43.707,3.3115,9.3999,11.756,18.316,4.6159,17.963,0,0,0,0,0,0,0,0,0,0,0,0,0,0,0,0,
631,-9.3139,6.1918,0.15609,-21.682,18.81,15.576,16.929,-9.5039,12.798,33.623,12.246,0.34034,12.778,4.2687,3.5432,9.8543,0,0,0,0,0,0,0,0,0,0,0,0,0,0,0,0,
632,-2.4094,-3.9005,-7.8652,-47.726,-5.306,-14.498,-34.112,-24.566,1.7326,8.5414,-19.822,-10.72,-20.2,-14.78,-20.53,-13.255,0,0,0,0,0,0,0,0,0,0,0,0,0,0,0,0,
633,-5.5032,-21.992,-10.885,-50.769,-25.42,-28.569,2.847,10.373,-19.333,4.4594,-33.89,-9.7809,-25.179,-18.828,-46.604,-31.366,0,0,0,0,0,0,0,0,0,0,0,0,0,0,0,0,
634,-24.596,-25.082,-17.904,-58.809,-22.531,-31.639,14.808,2.3144,-8.3973,7.3797,-2.956,-15.84,-4.1548,-17.874,-51.677,-32.474,0,0,0,0,0,0,0,0,0,0,0,0,0,0,0,0,
635,-10.689,-21.171,-6.925,-57.847,-11.641,-17.709,24.768,-32.74,1.5402,-3.6981,-10.022,-16.899,-5.1304,-16.919,-48.749,-38.581,0,0,0,0,0,0,0,0,0,0,0,0,0,0,0,0,
636,-1.7791,-9.2596,2.0553,-49.884,-0.74892,-6.7776,19.729,-16.797,23.478,4.2253,-35.088,-9.9581,-14.106,-11.965,-46.822,-41.688,0,0,0,0,0,0,0,0,0,0,0,0,0,0,0,0,
637,-22.871,-19.348,-15.964,-60.921,-8.8572,-22.848,0.69224,2.1419,10.416,22.147,-37.154,2.984,-19.083,1.9893,-42.895,-32.794,0,0,0,0,0,0,0,0,0,0,0,0,0,0,0,0,
638,-34.962,-30.437,-40.983,-41.957,-28.965,-34.918,-7.3439,30.083,-19.647,14.07,-45.22,-6.0738,-35.06,-15.056,-51.968,-51.901,0,0,0,0,0,0,0,0,0,0,0,0,0,0,0,0,
639,-25.054,-20.526,-36.002,-32.992,-22.071,-29.987,-18.381,7.0273,-26.708,1.9934,-43.285,-4.1308,-39.035,-22.101,-60.042,-73.008,0,0,0,0,0,0,0,0,0,0,0,0,0,0,0,0,
640,-13.143,-27.61,-33.019,-35.023,-31.172,-42.054,-29.415,-21.026,-36.766,-7.0814,-18.347,1.8136,-17.007,-10.144,-38.115,-52.114,0,0,0,0,0,0,0,0,0,0,0,0,0,0,0,0,
641,-13.23,-24.693,-18.036,-54.053,-44.273,-46.119,-10.447,-18.081,-28.822,-11.154,-17.409,-12.242,-6.9785,-13.187,-17.186,-27.219,0,0,0,0,0,0,0,0,0,0,0,0,0,0,0,0,
642,-22.318,-21.776,-14.054,-58.082,-29.372,-39.185,1.5199,-3.1337,-14.879,-5.2265,-5.469,-24.295,3.051,-14.228,-14.256,-36.322,0,0,0,0,0,0,0,0,0,0,0,0,0,0,0,0,
643,-26.405,-24.858,-11.071,-53.11,-27.468,-37.248,7.486,-2.1857,-8.9344,-4.2968,10.471,-21.349,3.0801,-11.269,-17.326,-49.425,0,0,0,0,0,0,0,0,0,0,0,0,0,0,0,0,
644,-3.491,-13.94,-8.0888,-42.138,-21.563,-29.311,8.4534,-12.236,-10.99,-15.366,-22.589,-21.403,-12.89,-22.309,-32.397,-65.528,0,0,0,0,0,0,0,0,0,0,0,0,0,0,0,0,
645,-3.5749,-5.0192,-26.105,-33.163,-2.6548,-16.372,-11.578,35.714,-11.045,-9.4332,-24.648,-9.4554,-2.8579,-7.3485,-40.467,-59.63,0,0,0,0,0,0,0,0,0,0,0,0,0,0,0,0,
646,-27.656,-0.09564,-4.1191,-24.185,6.2566,-3.4305,20.392,33.662,10.902,8.5009,-9.7065,-5.5085,7.174,3.612,-30.538,-39.731,0,0,0,0,0,0,0,0,0,0,0,0,0,0,0,0,
647,-14.737,-13.172,-13.133,-21.208,2.1693,-11.489,2.3614,-3.3862,14.851,11.436,-22.765,8.4391,-7.7938,5.5729,-22.609,-29.833,0,0,0,0,0,0,0,0,0,0,0,0,0,0,0,0,
648,-21.817,-24.247,-10.146,-23.227,-6.9156,-21.546,-7.6653,-12.433,0.80003,8.3723,-18.822,14.388,-8.7607,16.535,-16.681,-21.935,0,0,0,0,0,0,0,0,0,0,0,0,0,0,0,0,
649,-26.896,-30.32,-2.1578,-16.245,-13.998,-23.601,-0.69092,23.52,7.7515,17.312,0.12101,20.338,0.27301,24.498,-12.754,-8.0358,0,0,0,0,0,0,0,0,0,0,0,0,0,0,0,0,
650,-17.975,-43.393,-18.169,-5.2613,-6.078,-21.654,7.2844,32.475,4.704,24.252,0.06421,37.289,6.308,29.463,-3.826,10.864,0,0,0,0,0,0,0,0,0,0,0,0,0,0,0,0,
651,-16.051,-10.464,-8.1799,1.7245,11.845,-1.7059,19.261,23.43,6.6583,16.195,-1.9913,21.241,6.3448,16.429,-4.8975,4.766,0,0,0,0,0,0,0,0,0,0,0,0,0,0,0,0,
652,-1.1269,10.467,8.8107,8.7122,24.771,13.245,28.239,44.39,14.615,28.139,-13.046,10.195,-1.6166,13.398,-12.968,-18.332,0,0,0,0,0,0,0,0,0,0,0,0,0,0,0,0,
653,1.7981,1.3984,-1.1987,12.701,16.698,0.19528,1.2155,42.349,-0.42521,13.085,-7.0992,3.1481,0.42179,14.365,-13.038,-30.429,0,0,0,0,0,0,0,0,0,0,0,0,0,0,0,0,
654,11.723,-3.6692,5.7915,10.692,20.627,10.147,-1.8076,62.309,8.5345,22.032,15.847,23.102,22.46,32.333,-0.1092,-15.527,0,0,0,0,0,0,0,0,0,0,0,0,0,0,0,0,
655,7.6487,1.2646,4.7829,8.685,23.558,10.1,21.17,104.27,29.495,51.98,18.794,40.056,31.5,48.302,14.82,6.3759,0,0,0,0,0,0,0,0,0,0,0,0,0,0,0,0,
656,-48.425,-20.801,-27.227,7.6797,4.4911,-9.9463,9.1492,37.231,19.455,47.928,21.743,35.011,27.54,41.27,17.749,13.279,0,0,0,0,0,0,0,0,0,0,0,0,0,0,0,0,
657,-22.497,-8.8652,2.7653,13.676,14.427,6.0103,42.13,1.1928,41.418,42.879,55.694,30.965,51.584,44.24,24.68,6.1829,0,0,0,0,0,0,0,0,0,0,0,0,0,0,0,0,
658,9.433,-1.9276,19.76,13.674,25.367,9.9687,31.113,21.156,51.384,42.832,39.646,19.921,45.628,41.211,31.611,-8.9141,0,0,0,0,0,0,0,0,0,0,0,0,0,0,0,0,
659,18.363,-13.989,21.754,14.673,14.307,-3.0721,35.096,35.123,36.35,27.787,43.596,19.877,34.672,31.182,43.541,-15.011,0,0,0,0,0,0,0,0,0,0,0,0,0,0,0,0,
660,-5.7058,0.9512,25.748,17.673,13.249,0.88765,12.078,27.09,39.316,15.744,32.545,10.834,15.715,14.154,29.47,-27.109,0,0,0,0,0,0,0,0,0,0,0,0,0,0,0,0,
661,-13.773,-7.1076,-9.2577,16.675,10.194,-7.1512,5.0614,28.058,21.282,8.7015,8.4957,5.7909,-2.2422,13.125,0.39835,-43.205,0,0,0,0,0,0,0,0,0,0,0,0,0,0,0,0,
662,-3.8418,4.8335,10.737,35.677,21.138,6.8093,13.046,61.026,13.25,15.659,-2.5541,7.7478,-9.1993,14.097,-17.674,-54.3,0,0,0,0,0,0,0,0,0,0,0,0,0,0,0,0,
663,2.0896,6.7746,18.73,27.679,21.083,4.7697,21.029,17.993,16.218,20.618,23.397,32.707,2.8447,20.07,-13.747,-41.395,0,0,0,0,0,0,0,0,0,0,0,0,0,0,0,0,
664,2.0214,-2.2835,0.7244,19.682,14.031,-5.2689,-11.988,11.961,9.1867,21.578,7.3488,23.668,-6.1105,11.045,-4.8179,-24.489,0,0,0,0,0,0,0,0,0,0,0,0,0,0,0,0,
665,-7.0445,-9.34,-11.28,29.687,2.9794,-8.3064,-20,54.93,-9.8433,12.539,-13.699,16.627,-17.065,7.0203,-3.8888,-15.584,0,0,0,0,0,0,0,0,0,0,0,0,0,0,0,0,
666,-2.1098,-4.396,-16.283,36.693,10.93,-4.3431,-19.012,47.901,-11.871,21.501,-11.746,9.5878,-12.018,8.9964,-8.9588,-20.676,0,0,0,0,0,0,0,0,0,0,0,0,0,0,0,0,
667,-14.175,-11.452,-20.288,42.7,9.8818,-3.3798,-7.0251,7.875,-12.899,11.463,1.2077,-13.451,6.0283,3.9718,-7.029,-47.768,0,0,0,0,0,0,0,0,0,0,0,0,0,0,0,0,
668,18.759,1.4924,17.707,34.708,29.833,19.583,-0.03851,33.849,14.073,22.425,17.161,-2.4906,30.074,19.946,5.8995,-62.859,0,0,0,0,0,0,0,0,0,0,0,0,0,0,0,0,
669,20.692,0.43787,18.702,14.717,34.786,15.546,5.9492,26.823,30.044,33.389,26.115,17.471,35.12,25.921,11.827,-55.951,0,0,0,0,0,0,0,0,0,0,0,0,0,0,0,0,
670,-12.372,-13.614,3.6979,13.729,23.743,9.5122,21.938,38.798,34.017,30.354,29.07,10.434,30.168,21.899,5.7556,-36.043,0,0,0,0,0,0,0,0,0,0,0,0,0,0,0,0,
671,5.5658,-3.6647,21.694,9.7425,24.702,10.481,30.927,10.772,31.992,25.323,19.026,-4.6035,27.217,17.877,-2.3151,-19.133,0,0,0,0,0,0,0,0,0,0,0,0,0,0,0,0,
672,28.506,5.2865,33.692,5.7565,30.664,9.4503,14.917,-6.25,38.968,22.293,13.982,5.359,29.267,24.855,-8.3858,-10.223,0,0,0,0,0,0,0,0,0,0,0,0,0,0,0,0,
673,-0.55445,-4.7609,13.69,15.773,22.628,9.4217,-13.091,21.731,32.946,23.265,1.9385,9.3228,18.317,26.834,-12.457,-7.3144,0,0,0,0,0,0,0,0,0,0,0,0,0,0,0,0,
674,10.386,5.1917,11.688,14.79,28.594,8.393,15.902,51.71,27.925,32.238,15.896,19.287,30.368,36.813,-7.5287,4.5951,0,0,0,0,0,0,0,0,0,0,0,0,0,0,0,0,
675,20.326,-0.85575,10.687,-3.1905,14.559,-7.6362,23.894,22.689,26.904,31.21,10.853,15.251,20.418,22.791,-5.601,11.505,0,0,0,0,0,0,0,0,0,0,0,0,0,0,0,0,
676,1.2674,-18.902,-5.3146,-8.1698,-4.4734,-17.663,-3.1125,10.669,14.882,8.1832,5.8108,14.215,14.469,13.77,-9.6736,7.4153,0,0,0,0,0,0,0,0,0,0,0,0,0,0,0,0,
677,8.21,-16.945,-6.3141,-12.148,8.4981,-11.688,15.883,37.65,10.863,6.1585,23.771,17.182,18.522,20.751,-9.7452,-2.6728,0,0,0,0,0,0,0,0,0,0,0,0,0,0,0,0,
678,2.1548,9.0126,24.689,2.8742,34.471,19.288,35.88,16.632,20.847,23.136,25.731,14.148,29.577,27.733,-1.8156,-2.759,0,0,0,0,0,0,0,0,0,0,0,0,0,0,0,0,
679,32.102,29.971,54.692,14.898,63.447,46.267,31.879,20.618,45.834,47.116,34.695,34.116,56.635,51.717,21.116,13.157,0,0,0,0,0,0,0,0,0,0,0,0,0,0,0,0,
680,37.049,8.9315,16.696,13.923,47.425,25.245,-1.1218,40.603,40.822,54.098,25.66,25.083,39.693,47.701,28.048,17.073,0,0,0,0,0,0,0,0,0,0,0,0,0,0,0,0,
681,12.998,1.8937,-6.2988,23.95,31.405,20.226,14.882,51.592,10.811,54.081,9.6251,40.052,27.753,55.686,12.98,9.9902,0,0,0,0,0,0,0,0,0,0,0,0,0,0,0,0,
682,0.94758,9.8566,-15.294,36.977,37.386,22.208,13.883,67.579,22.8,73.065,26.59,52.02,32.812,58.671,0.91256,15.907,0,0,0,0,0,0,0,0,0,0,0,0,0,0,0,0,
683,-10.104,-2.1808,-14.29,35.004,33.368,18.189,-7.1177,80.567,24.79,61.048,28.554,52.989,39.869,56.655,0.8438,32.824,0,0,0,0,0,0,0,0,0,0,0,0,0,0,0,0,
684,-25.152,-10.216,-5.286,36.033,33.353,22.173,11.883,91.556,27.779,59.033,4.5181,32.958,32.925,44.64,-1.2268,21.74,0,0,0,0,0,0,0,0,0,0,0,0,0,0,0,0,
685,-17.201,-15.251,-5.2809,39.063,32.34,15.157,8.8852,29.544,31.768,45.019,9.4833,42.928,32.983,51.626,-0.29787,15.656,0,0,0,0,0,0,0,0,0,0,0,0,0,0,0,0,
686,-5.2497,-16.283,-4.2742,28.093,21.329,7.1432,-11.111,11.532,38.761,32.007,6.4498,46.899,21.043,49.614,-4.3683,19.574,0,0,0,0,0,0,0,0,0,0,0,0,0,0,0,0,
687,-13.295,-14.314,-0.267,38.124,17.32,1.1304,15.896,37.524,24.756,36.998,-0.58176,51.871,8.104,52.602,-8.4375,26.492,0,0,0,0,0,0,0,0,0,0,0,0,0,0,0,0,
688,-25.34,-33.345,-3.2596,32.157,8.3123,-12.882,-6.0985,44.516,-1.2499,38.988,-1.6139,48.843,5.1645,44.59,-6.506,31.41,0,0,0,0,0,0,0,0,0,0,0,0,0,0,0,0,
689,4.6159,-18.373,1.7479,28.191,11.306,-1.8935,4.9071,38.51,-9.2548,31.98,9.3543,51.816,21.225,50.578,6.4249,40.33,0,0,0,0,0,0,0,0,0,0,0,0,0,0,0,0,
690,-5.4288,-9.4023,-13.246,22.227,13.301,-7.9052,2.9131,30.505,8.7414,28.972,20.322,27.788,20.285,28.566,12.355,41.249,0,0,0,0,0,0,0,0,0,0,0,0,0,0,0,0,
691,-19.474,-7.4319,-28.24,38.264,27.295,12.083,1.9173,57.499,2.7362,16.964,15.289,31.759,32.343,29.553,16.283,44.167,0,0,0,0,0,0,0,0,0,0,0,0,0,0,0,0,
692,10.481,11.54,2.7661,54.302,47.291,35.072,6.9209,77.493,22.732,41.956,22.257,31.732,40.402,32.54,23.211,32.087,0,0,0,0,0,0,0,0,0,0,0,0,0,0,0,0,
693,31.439,8.5135,11.773,33.342,36.29,16.062,8.9282,50.488,19.728,42.95,23.226,18.706,34.463,27.529,24.141,25.008,0,0,0,0,0,0,0,0,0,0,0,0,0,0,0,0,
694,19.397,-5.5125,19.779,8.3819,22.289,10.052,-4.0646,-0.51861,19.725,23.945,23.194,24.679,28.523,33.517,20.07,42.928,0,0,0,0,0,0,0,0,0,0,0,0,0,0,0,0,
695,38.355,25.463,52.787,19.425,41.29,29.044,19.944,-10.521,27.722,27.94,37.164,41.653,33.584,48.507,21.999,67.848,0,0,0,0,0,0,0,0,0,0,0,0,0,0,0,0,
696,27.316,37.441,56.797,32.47,62.295,47.039,35.955,26.481,34.723,41.939,37.137,46.628,37.648,58.499,31.93,85.77,0,0,0,0,0,0,0,0,0,0,0,0,0,0,0,0,
697,56.279,48.421,56.808,29.518,73.303,66.036,43.968,34.482,49.727,57.941,52.11,33.605,46.713,60.492,36.862,80.695,0,0,0,0,0,0,0,0,0,0,0,0,0,0,0,0,
698,67.242,32.402,46.818,19.567,65.312,51.034,34.981,46.483,62.731,68.943,56.083,32.582,49.777,57.485,37.795,66.621,0,0,0,0,0,0,0,0,0,0,0,0,0,0,0,0,
699,32.205,20.383,33.828,26.615,48.322,33.032,36.993,73.485,61.736,51.946,35.057,42.56,45.842,51.479,35.726,72.545,0,0,0,0,0,0,0,0,0,0,0,0,0,0,0,0,
700,10.169,-2.6356,21.838,12.664,13.333,2.03,39.006,20.488,44.742,28.951,22.03,22.538,27.907,25.473,24.657,68.469,0,0,0,0,0,0,0,0,0,0,0,0,0,0,0,0,
701,-5.8672,-9.6537,31.848,13.715,-1.6548,-18.971,28.018,14.491,20.747,6.9557,30.004,26.517,26.972,23.467,20.588,68.393,0,0,0,0,0,0,0,0,0,0,0,0,0,0,0,0,
702,3.0977,-7.6704,43.858,22.767,-10.642,-22.972,58.033,-4.5057,15.754,-6.0389,33.98,27.495,29.037,17.461,20.518,70.317,0,0,0,0,0,0,0,0,0,0,0,0,0,0,0,0,
703,8.0639,-17.686,33.87,14.821,-2.6262,-18.971,12.048,-10.499,32.761,1.9669,33.955,24.474,29.103,14.454,15.448,68.242,0,0,0,0,0,0,0,0,0,0,0,0,0,0,0,0,
704,-29.968,-36.7,-2.117,-1.1239,-0.60756,-14.968,0.06415,15.51,12.769,6.9747,38.932,20.452,22.17,17.448,-1.6212,55.167,0,0,0,0,0,0,0,0,0,0,0,0,0,0,0,0,
705,-20.998,-14.71,5.898,22.933,19.413,11.037,51.084,50.52,24.779,27.984,46.91,31.432,36.237,36.444,-1.6903,47.092,0,0,0,0,0,0,0,0,0,0,0,0,0,0,0,0,
706,-11.025,-1.7176,8.9143,43.994,28.439,15.045,45.105,53.531,51.791,51.997,57.89,43.414,67.307,48.443,21.242,57.02,0,0,0,0,0,0,0,0,0,0,0,0,0,0,0,0,
707,-6.0498,-13.722,4.9317,16.058,9.4669,-1.9438,28.127,-15.457,57.806,33.013,50.87,19.395,55.377,20.442,33.175,57.95,0,0,0,0,0,0,0,0,0,0,0,0,0,0,0,0,
708,4.9256,-14.726,13.949,18.123,22.496,15.068,42.15,5.5574,43.822,16.03,42.852,34.378,48.448,29.442,27.11,55.881,0,0,0,0,0,0,0,0,0,0,0,0,0,0,0,0,
709,-3.0987,0.27,8.9671,32.188,41.527,27.079,35.173,38.571,46.839,36.047,42.834,37.361,58.519,40.441,26.044,64.812,0,0,0,0,0,0,0,0,0,0,0,0,0,0,0,0,
710,8.8747,-9.7351,18.983,26.251,39.554,30.088,43.194,14.582,51.854,32.062,42.813,31.341,51.585,32.437,23.976,72.741,0,0,0,0,0,0,0,0,0,0,0,0,0,0,0,0,
711,27.848,9.2599,41.999,39.314,57.582,46.095,68.213,43.595,68.866,38.076,66.792,31.323,57.652,37.433,24.905,60.668,0,0,0,0,0,0,0,0,0,0,0,0,0,0,0,0,
712,10.822,-0.74477,16.014,27.378,45.611,29.104,37.232,53.611,75.88,38.091,53.771,15.303,44.719,24.429,21.832,32.595,0,0,0,0,0,0,0,0,0,0,0,0,0,0,0,0,
713,13.797,14.252,20.03,55.444,50.641,42.114,24.255,6.6261,59.896,45.108,32.749,27.283,25.786,21.424,10.759,9.5216,0,0,0,0,0,0,0,0,0,0,0,0,0,0,0,0,
714,17.772,16.249,-1.9539,39.511,34.673,20.124,10.276,-5.3577,40.911,22.125,17.726,15.265,12.852,3.4209,-5.3135,0.44911,0,0,0,0,0,0,0,0,0,0,0,0,0,0,0,0,
715,-23.253,-22.753,-29.938,6.579,8.706,-2.865,1.2967,2.6597,23.926,-6.8564,13.704,-2.7542,14.917,-2.5831,-11.386,4.3773,0,0,0,0,0,0,0,0,0,0,0,0,0,0,0,0,
716,-17.275,-18.753,-30.921,6.6479,1.7401,-6.8535,19.321,7.6771,17.941,-6.8377,7.6832,-0.77183,3.9833,-2.586,-8.4587,13.307,0,0,0,0,0,0,0,0,0,0,0,0,0,0,0,0,
717,-40.297,-23.752,-41.902,16.717,0.77559,-9.8415,6.3451,27.693,-6.0421,-1.8182,14.664,28.212,6.0502,19.411,0.46958,29.238,0,0,0,0,0,0,0,0,0,0,0,0,0,0,0,0,
718,-8.3179,-14.752,-9.884,24.786,21.812,17.171,21.369,27.711,10.975,30.201,12.643,25.193,6.1165,23.407,-0.60267,37.167,0,0,0,0,0,0,0,0,0,0,0,0,0,0,0,0,
719,3.6614,-16.749,-13.866,-5.1417,19.851,15.187,24.394,21.734,17.993,25.222,8.6244,12.174,-5.8158,6.4039,-15.675,29.097,0,0,0,0,0,0,0,0,0,0,0,0,0,0,0,0,
720,12.642,-7.7438,-1.8467,4.9324,38.895,33.205,18.42,37.756,15.013,19.247,25.605,26.157,5.2525,13.402,-11.748,30.028,0,0,0,0,0,0,0,0,0,0,0,0,0,0,0,0,
721,19.624,7.2633,19.172,25.006,45.94,46.225,39.446,35.777,18.034,39.273,8.586,12.14,-4.6792,11.401,-1.8209,34.96,0,0,0,0,0,0,0,0,0,0,0,0,0,0,0,0,
722,-18.393,-8.7288,-2.8077,16.08,25.985,22.244,19.472,-0.20034,0.0554,32.3,-16.432,13.125,-15.611,10.401,-6.8935,38.893,0,0,0,0,0,0,0,0,0,0,0,0,0,0,0,0,
723,-10.409,-17.721,-13.788,-5.8458,14.03,12.263,-4.5016,-10.177,-7.9233,17.326,-8.45,0.10966,-14.543,-5.5999,-12.966,33.827,0,0,0,0,0,0,0,0,0,0,0,0,0,0,0,0,
724,23.576,-7.7119,9.234,-12.769,14.078,16.283,25.526,-13.155,-4.9013,3.3523,0.53306,-7.9044,-11.474,-17.6,-7.0389,24.76,0,0,0,0,0,0,0,0,0,0,0,0,0,0,0,0,
725,10.561,-14.702,10.255,-19.693,7.126,2.3037,26.555,-4.1293,-7.8782,-8.6205,22.517,4.0812,-5.4051,-13.601,8.8882,18.694,0,0,0,0,0,0,0,0,0,0,0,0,0,0,0,0,
726,11.546,-8.6915,4.2765,-16.615,0.17646,1.3262,28.585,46.899,-4.8533,-2.5912,8.501,-4.9342,-15.335,-17.601,10.815,9.6273,0,0,0,0,0,0,0,0,0,0,0,0,0,0,0,0,
727,-24.468,-28.68,-6.7014,-21.537,-11.772,-10.651,24.617,-3.0741,-11.826,-8.5605,-6.5135,-9.9495,-5.264,-13.601,3.7429,-1.44,0,0,0,0,0,0,0,0,0,0,0,0,0,0,0,0,
728,-3.4829,-15.668,15.321,-13.46,4.2814,2.3729,34.65,-23.047,9.2008,-6.5299,22.472,12.036,15.806,0.39855,5.671,3.4927,0,0,0,0,0,0,0,0,0,0,0,0,0,0,0,0,
729,16.504,-2.6552,20.345,1.6181,10.335,15.397,28.682,19.98,24.229,-7.4989,12.458,4.0218,3.8762,-13.602,6.5993,9.426,0,0,0,0,0,0,0,0,0,0,0,0,0,0,0,0,
730,33.493,6.3587,29.369,-7.3027,27.39,25.421,27.715,9.0087,32.257,-8.4675,-10.556,-15.992,-18.054,-29.602,-10.472,-6.6392,0,0,0,0,0,0,0,0,0,0,0,0,0,0,0,0,
731,-4.5175,-10.626,27.394,-17.223,19.447,18.447,43.747,-19.961,4.2845,-15.434,-16.572,-15.007,-16.987,-35.604,-29.546,-25.705,0,0,0,0,0,0,0,0,0,0,0,0,0,0,0,0,
732,30.474,13.391,48.418,-9.1421,44.506,47.475,57.779,4.066,26.312,-1.4005,-0.58738,4.9783,3.0803,-9.6045,-29.622,-20.772,0,0,0,0,0,0,0,0,0,0,0,0,0,0,0,0,
733,36.466,8.4105,47.443,-20.06,59.568,53.504,29.814,24.096,44.341,27.635,20.399,2.9657,7.1502,1.3971,-9.6977,0.16227,0,0,0,0,0,0,0,0,0,0,0,0,0,0,0,0,
734,19.462,9.4322,24.472,-20.977,47.631,47.535,27.849,-10.87,33.372,33.673,2.3857,0.95329,0.22075,-6.6007,6.2293,17.099,0,0,0,0,0,0,0,0,0,0,0,0,0,0,0,0,
735,27.458,33.455,29.498,-14.893,55.696,56.567,55.886,-21.836,31.404,27.712,-11.625,-4.0567,-13.706,-16.596,0.1585,11.039,0,0,0,0,0,0,0,0,0,0,0,0,0,0,0,0,
736,13.452,27.476,30.524,-25.809,46.763,43.6,30.924,-1.8013,17.439,14.753,-8.6329,-22.067,-24.632,-34.592,-21.91,-13.02,0,0,0,0,0,0,0,0,0,0,0,0,0,0,0,0,
737,31.449,9.4995,33.554,-30.723,31.83,34.633,10.965,-13.765,6.4755,-3.2063,3.3598,-17.076,-20.557,-37.586,-31.978,-23.079,0,0,0,0,0,0,0,0,0,0,0,0,0,0,0,0,
738,-10.554,-4.4764,-4.4179,-43.637,15.897,12.665,2.0031,-6.7288,-3.4891,-3.1656,4.3514,2.9143,-21.484,-27.583,-24.046,-14.138,0,0,0,0,0,0,0,0,0,0,0,0,0,0,0,0,
739,-46.558,-49.452,-40.39,-65.55,-23.035,-24.303,-27.958,-3.6944,-33.455,-10.126,-25.657,-15.096,-53.412,-46.581,-26.115,-16.196,0,0,0,0,0,0,0,0,0,0,0,0,0,0,0,0,
740,-31.56,-55.425,-50.361,-82.461,-54.966,-47.269,-32.917,12.341,-62.42,-33.086,-44.665,-16.107,-65.339,-43.58,-44.185,-27.256,0,0,0,0,0,0,0,0,0,0,0,0,0,0,0,0,
741,-59.56,-44.398,-49.332,-73.372,-54.894,-52.233,-18.878,-18.622,-72.384,-34.044,-35.673,-3.1173,-58.266,-36.577,-53.256,-31.315,0,0,0,0,0,0,0,0,0,0,0,0,0,0,0,0,
742,-35.559,-35.369,-48.302,-44.283,-57.82,-51.196,-31.837,-57.583,-65.347,-51,-46.681,-31.126,-77.193,-73.573,-62.326,-41.374,0,0,0,0,0,0,0,0,0,0,0,0,0,0,0,0,
743,-36.558,-29.338,-30.268,-20.192,-47.744,-41.157,-25.793,-12.544,-68.308,-71.955,-63.686,-34.134,-73.118,-80.568,-69.394,-60.43,0,0,0,0,0,0,0,0,0,0,0,0,0,0,0,0,
744,-54.554,-38.307,-31.235,-18.102,-48.667,-47.119,-38.748,-32.504,-66.268,-60.91,-81.692,-56.143,-85.044,-97.563,-79.462,-82.484,0,0,0,0,0,0,0,0,0,0,0,0,0,0,0,0,
745,-48.55,-38.276,-36.2,-19.013,-47.591,-36.082,-16.703,-42.463,-72.229,-61.865,-75.696,-53.151,-80.97,-83.559,-86.529,-86.538,0,0,0,0,0,0,0,0,0,0,0,0,0,0,0,0,
746,-21.544,-5.2422,-9.1642,7.0778,-6.5131,-1.0427,-37.657,-7.4197,-36.188,-26.819,-55.699,-24.159,-69.896,-61.554,-78.597,-76.593,0,0,0,0,0,0,0,0,0,0,0,0,0,0,0,0,
747,-19.537,-7.2077,-13.129,34.17,-6.433,1.9977,-36.611,51.622,-47.147,-19.772,-61.702,-35.166,-83.824,-64.549,-72.665,-74.649,0,0,0,0,0,0,0,0,0,0,0,0,0,0,0,0,
748,-13.53,3.8274,1.9047,26.263,-3.3517,7.039,-15.565,5.6632,-43.106,-15.723,-50.706,-42.172,-70.751,-62.545,-73.735,-74.706,0,0,0,0,0,0,0,0,0,0,0,0,0,0,0,0,
749,-8.5233,-6.1368,1.9392,-1.6428,-3.2676,2.0823,-7.5196,-45.291,-24.064,-29.673,-21.709,-46.178,-54.679,-68.54,-72.804,-69.762,0,0,0,0,0,0,0,0,0,0,0,0,0,0,0,0,
750,3.4844,-0.10047,10.974,9.4514,-2.1824,8.1268,7.5266,-38.243,-17.02,-39.621,-39.712,-59.184,-69.605,-78.535,-70.874,-68.817,0,0,0,0,0,0,0,0,0,0,0,0,0,0,0,0,
751,-7.507,-8.0625,23.01,-12.453,2.9033,12.171,24.574,6.803,-20.976,-40.57,-34.717,-49.192,-47.532,-61.531,-57.944,-62.872,0,0,0,0,0,0,0,0,0,0,0,0,0,0,0,0,
752,-1.497,-23.023,17.047,-14.358,2.9904,8.2161,19.624,0.85023,-20.931,-31.518,-32.719,-32.199,-44.458,-50.524,-43.013,-46.926,0,0,0,0,0,0,0,0,0,0,0,0,0,0,0,0,
753,-4.4851,-5.9828,24.084,5.7369,-7.9226,2.2608,-37.329,-1.1016,-20.884,-35.465,-37.721,-39.205,-52.383,-56.518,-41.082,-37.979,0,0,0,0,0,0,0,0,0,0,0,0,0,0,0,0,
754,0.52352,1.056,17.119,19.83,-15.838,-11.698,-16.282,-21.056,-31.838,-42.413,-49.724,-40.211,-65.31,-61.511,-54.15,-36.029,0,0,0,0,0,0,0,0,0,0,0,0,0,0,0,0,
755,6.533,-2.9058,19.154,26.922,2.2465,9.3432,-9.2358,-25.011,-47.793,-36.362,-72.728,-53.218,-78.237,-64.506,-79.219,-50.08,0,0,0,0,0,0,0,0,0,0,0,0,0,0,0,0,
756,11.543,9.1327,17.188,39.015,23.332,32.385,-25.19,6.0341,-26.748,-16.312,-61.732,-49.226,-62.165,-51.502,-86.289,-64.132,0,0,0,0,0,0,0,0,0,0,0,0,0,0,0,0,
757,11.551,33.171,14.223,41.109,28.419,32.427,-5.1417,18.079,-15.704,-1.2615,-34.736,-38.233,-45.092,-42.499,-68.36,-60.185,0,0,0,0,0,0,0,0,0,0,0,0,0,0,0,0,
758,22.562,29.21,15.259,54.204,29.508,38.472,-2.0926,-5.8731,-4.6577,5.7902,-51.738,-32.24,-48.019,-44.495,-51.43,-50.237,0,0,0,0,0,0,0,0,0,0,0,0,0,0,0,0,
759,19.574,26.252,15.298,54.302,26.601,36.52,-7.0412,17.179,-8.6095,2.8447,-66.738,-47.245,-43.945,-50.49,-55.498,-63.286,0,0,0,0,0,0,0,0,0,0,0,0,0,0,0,0,
760,4.5861,7.2947,6.3365,49.401,20.695,25.568,-28.99,40.232,-1.5609,-2.0988,-66.736,-63.249,-51.87,-61.483,-68.565,-72.331,0,0,0,0,0,0,0,0,0,0,0,0,0,0,0,0,
761,1.6024,-9.6598,-0.62299,47.503,7.7913,19.619,-35.937,-8.7155,-28.511,-17.04,-67.733,-73.252,-61.793,-74.473,-79.63,-79.375,0,0,0,0,0,0,0,0,0,0,0,0,0,0,0,0,
762,-10.38,-2.6129,-3.5825,35.604,20.888,28.67,-21.883,-45.663,-30.459,-14.979,-43.73,-46.253,-39.717,-52.463,-65.695,-66.418,0,0,0,0,0,0,0,0,0,0,0,0,0,0,0,0,
763,-19.364,9.434,-1.5428,41.705,18.985,30.72,-30.83,1.3908,-24.408,-11.918,-34.728,-34.255,-30.641,-43.452,-41.761,-48.459,0,0,0,0,0,0,0,0,0,0,0,0,0,0,0,0,
764,-0.34781,32.482,14.498,68.805,29.083,42.771,-20.776,12.445,-17.356,5.1434,-17.724,-27.256,-21.565,-32.441,-25.827,-38.498,0,0,0,0,0,0,0,0,0,0,0,0,0,0,0,0,
765,22.669,27.53,16.537,88.904,42.181,50.822,-0.72325,3.4999,-13.303,13.205,-29.722,-14.257,-24.49,-17.431,-21.894,-34.539,0,0,0,0,0,0,0,0,0,0,0,0,0,0,0,0,
766,34.686,33.577,43.575,78.002,42.279,58.872,27.328,26.553,-7.2522,20.265,2.2787,4.7395,-12.416,-2.4239,-13.961,-20.581,0,0,0,0,0,0,0,0,0,0,0,0,0,0,0,0,
767,20.702,41.626,38.614,86.102,57.378,73.923,50.381,58.61,17.798,34.325,33.282,13.736,10.658,10.583,9.9718,8.3772,0,0,0,0,0,0,0,0,0,0,0,0,0,0,0,0,
768,47.718,68.675,66.653,103.2,87.477,98.974,78.437,84.668,39.85,48.387,73.286,23.734,45.732,28.591,46.906,44.336,0,0,0,0,0,0,0,0,0,0,0,0,0,0,0,0,
769,91.737,86.726,90.694,108.3,111.58,128.03,107.49,32.724,81.901,62.449,92.291,32.731,72.807,32.599,76.841,64.297,0,0,0,0,0,0,0,0,0,0,0,0,0,0,0,0,
770,100.76,95.777,92.736,86.404,112.68,119.08,87.546,-0.22012,95.954,60.512,53.298,16.729,50.882,9.6082,60.777,47.26,0,0,0,0,0,0,0,0,0,0,0,0,0,0,0,0,
771,33.779,41.83,40.778,43.506,60.786,70.138,19.606,-1.1611,67.009,25.577,13.307,-13.272,11.958,-17.381,3.7145,10.223,0,0,0,0,0,0,0,0,0,0,0,0,0,0,0,0,
772,17.802,13.885,11.822,20.608,24.893,37.195,-10.336,-13.101,33.065,5.6426,-25.683,-42.272,-18.963,-40.37,-49.347,-23.811,0,0,0,0,0,0,0,0,0,0,0,0,0,0,0,0,
773,2.8252,-3.0584,1.8663,13.712,19.002,26.253,-20.276,-37.042,-5.8763,-14.291,-39.673,-38.272,-17.884,-34.358,-67.407,-36.844,0,0,0,0,0,0,0,0,0,0,0,0,0,0,0,0,
