%OpenBCI Raw EXG Data
%Number of channels = 16
%Sample Rate = 125 Hz
%Board = OpenBCI_GUI$BoardCytonSerialDaisy
Sample Index,EXG Channel 0,EXG Channel 1,EXG Channel 2,EXG Channel 3,EXG Channel 4,EXG Channel 5,EXG Channel 6,EXG Channel 7,EXG Channel 8,EXG Channel 9,EXG Channel 10,EXG Channel 11,EXG Channel 12,EXG Channel 13,EXG Channel 14,EXG Channel 15,Accel Channel 0,Accel Channel 1,Accel Channel 2,Other,Other.1,Other.2,Other.3,Other.4,Other.5,Other.6,Analog Channel 0,Analog Channel 1,Analog Channel 2,Timestamp,Other.7,Timestamp (Formatted),Annotations
0,70.21001314083168,85.40080505205772,83.91960159527437,85.26998499317418,81.11979146082365,88.6740099138249,20.51754155308139,34.13211402485666,75.12645194359112,83.46031790416916,90.69774448402399,86.27466354344809,75.29258027827423,80.18513159591524,78.3444622850237,80.55485114709492,0,0,0,0,0,0,0,0,0,0,0,0,0,0,0,0,
1,52.55327235779164,67.28297373079724,68.7409799185125,62.817150822355416,65.28270612681479,75.08239829032081,-2.314547190586673,10.540134041418838,84.11627726563496,92.03776895814099,89.3339663304119,96.20722995414852,80.7733246287448,88.89787303350269,87.01269068019145,85.385338993289,0,0,0,0,0,0,0,0,0,0,0,0,0,0,0,0,
2,28.06210292489994,38.78121418825425,41.29685271485143,21.752548648122897,37.23370237413643,48.67348008867875,-8.045808511962115,-20.973684803447565,47.60826326781243,54.985093608381895,49.81874790880031,63.498712207685585,45.24695077434271,54.35259777788862,39.28727949631181,49.70874589387848,0,0,0,0,0,0,0,0,0,0,0,0,0,0,0,0,
3,29.61327099304158,38.25683809275597,42.79578601390016,16.336061522654738,34.9997086284257,45.72031559349656,3.7367911251398453,-24.196026506797338,27.278989548170294,35.06707104146358,27.018896717270895,33.81778504706085,21.408224196033565,31.141783266481482,10.949063529173497,28.5303039549302,0,0,0,0,0,0,0,0,0,0,0,0,0,0,0,0,
4,22.215183336959857,37.39539568261698,40.24447132864406,17.48926882126689,32.08147821940864,46.023532437679286,-8.859939340639318,-24.60417558456153,35.870656698958015,40.92967979262037,31.2657936554647,31.701154612322455,23.180065141142855,34.08118177973621,26.972830980147634,33.518738417989475,0,0,0,0,0,0,0,0,0,0,0,0,0,0,0,0,
5,7.8667036571222475,24.61234882939017,22.768670651416862,4.3424123479101056,16.88776523474915,33.1399675559,-39.0907948686662,-42.54113712418671,26.82423136197132,30.618830795448517,21.40891557742205,27.02047526980189,14.757217994881625,24.99552371680857,27.058868938047528,27.073621631932607,0,0,0,0,0,0,0,0,0,0,0,0,0,0,0,0,
6,7.243583208517814,19.526614591689786,15.750915716773722,-6.696200421680739,8.654473995420144,24.60182990140531,-48.81817764328892,-51.91648569088063,16.34671067252086,17.799760936276428,17.24891846757885,14.37791322076858,4.586191615158597,12.128584647473712,11.834525378512943,14.808363932174416,0,0,0,0,0,0,0,0,0,0,0,0,0,0,0,0,
7,-0.46246744669160655,13.208929903121629,9.446644324283314,-16.697334792854626,-1.44910118340602,19.490250454807885,-48.533793907682906,-57.323109885090574,18.50548460629197,17.25401052141746,25.534299186449758,13.23801027889284,8.29335918929197,13.297310644284693,6.936332726545658,15.09645077556825,0,0,0,0,0,0,0,0,0,0,0,0,0,0,0,0,
8,-17.948474607815943,-5.624832677467031,-5.864976863675005,-32.05425599271156,-17.658900667594917,5.355980942392793,-49.31498920319167,-67.43292284180507,3.5569817587531105,7.628993912542299,3.9761738341646193,11.769612239330584,0.6993920956077844,6.735777791996547,-3.721477483043735,5.020407308725183,0,0,0,0,0,0,0,0,0,0,0,0,0,0,0,0,
9,-36.901109804553066,-29.99204072694431,-26.89099231677824,-53.7163019216532,-35.7841848722116,-16.92594395018807,-55.059494408399516,-79.49585642787699,-18.875573624627226,-9.8109182312288,-24.458109226747883,-4.836719458357191,-19.590547925964827,-10.757499062658102,-27.301036524648893,-15.120276997209,0,0,0,0,0,0,0,0,0,0,0,0,0,0,0,0,
10,-51.405115453022574,-45.20331019695398,-41.90868225116405,-71.03136900060362,-50.719649597906226,-34.40484403002091,-85.71155910100225,-98.60512465946331,-31.97952510738186,-25.298917317897747,-40.48200543942457,-23.425651845027563,-37.03591520734926,-25.36165507569389,-39.688387488806256,-22.61286244129346,0,0,0,0,0,0,0,0,0,0,0,0,0,0,0,0,
11,-56.0964732480527,-49.7701432866599,-46.638873918160805,-80.1225919261808,-60.806715211147804,-41.74585363432085,-110.14581386377169,-111.15017430736955,-38.512586402421434,-35.54525812432287,-51.49035589746499,-28.94683133213212,-47.22912906936688,-33.680729531038665,-38.638358684146475,-29.569076413030032,0,0,0,0,0,0,0,0,0,0,0,0,0,0,0,0,
12,-67.38731212990722,-58.97198347620642,-61.41591648059505,-93.51761352381457,-75.30380642660856,-53.12938580749362,-105.41496648476972,-122.55064503630157,-45.69531302205298,-45.33463575090775,-50.84590970674092,-37.68110415999402,-56.53888523258903,-45.20641598328233,-49.25097248910306,-46.687402977381815,0,0,0,0,0,0,0,0,0,0,0,0,0,0,0,0,
13,-80.12350994168477,-69.97759291010777,-78.66835576747445,-106.95419987169586,-86.17471793652165,-63.80628689988562,-107.0900270435177,-130.36929117663456,-60.88965825523703,-60.24733119438031,-62.61389840361373,-58.68881276207111,-71.16185036584572,-63.691204486936385,-66.5724162717054,-60.40240454211305,0,0,0,0,0,0,0,0,0,0,0,0,0,0,0,0,
14,-77.7710925067316,-68.50054909498297,-74.42192295010813,-103.89097693705074,-82.72357952961205,-56.88283308368496,-106.70571219997754,-116.27423506337246,-65.74879045126858,-62.40847113089313,-75.46903320446536,-65.10290956610169,-73.80348533697398,-67.96723545823903,-69.95597319245749,-63.86357265227878,0,0,0,0,0,0,0,0,0,0,0,0,0,0,0,0,
15,-86.25902734481191,-74.99138010777888,-77.63607890689916,-107.38571808144314,-89.36303936252823,-60.90841228057988,-103.81476322643942,-124.88008679587738,-64.12855440858753,-63.080487098284095,-68.89865443395928,-63.74983046806696,-67.88548020264668,-65.6777805168559,-65.6045398469355,-63.973866425845735,0,0,0,0,0,0,0,0,0,0,0,0,0,0,0,0,
16,-104.95806160474524,-96.13286591841099,-99.87894308697044,-131.6624544688788,-109.61142197282635,-83.22969024854613,-125.48894869879118,-155.28914205687107,-78.60179015783713,-81.29538551196873,-80.18287652512683,-78.92752323184433,-76.67935303114714,-80.77542008749079,-79.44120061280967,-74.5103789434857,0,0,0,0,0,0,0,0,0,0,0,0,0,0,0,0,
17,-91.40199451707664,-86.41121885608295,-90.09483060717606,-125.1638746591527,-98.92647935093949,-71.63730594004817,-127.67516076423232,-139.63654664812373,-77.18817066150712,-76.39494397277136,-89.45630347788689,-75.40308712731527,-77.09936540012762,-79.09486941969253,-87.56858678802644,-79.23014976356642,0,0,0,0,0,0,0,0,0,0,0,0,0,0,0,0,
18,-90.4329192237077,-84.88929190037152,-84.66756817184915,-123.40352813182895,-95.6377690985453,-66.76870883495005,-122.65969667861016,-136.91444176613737,-70.1216550121544,-68.20857557065685,-85.68624384206396,-65.37567132169983,-74.94389328105706,-71.03839911588283,-75.4404945530278,-77.28987004786309,0,0,0,0,0,0,0,0,0,0,0,0,0,0,0,0,
19,-124.31996387142749,-122.07486786183966,-116.52736688263256,-164.11316497424252,-129.82017425461498,-105.23080349927324,-144.50683777143118,-177.09201739587152,-100.20838587714374,-102.37310763035174,-112.8231587770897,-97.24922071057546,-104.40574291238836,-101.66535828911175,-96.11281535787774,-98.56162625383537,0,0,0,0,0,0,0,0,0,0,0,0,0,0,0,0,
20,-113.97566729372258,-113.95030787590855,-109.23849248003592,-156.70089834936016,-124.50451827293072,-103.9747747514821,-127.89237367220818,-165.4305742800443,-112.43163108041449,-114.35878709889336,-125.21612288039285,-113.52813361783855,-117.96996641605557,-114.68229041137246,-112.56092812294996,-106.89340414420803,0,0,0,0,0,0,0,0,0,0,0,0,0,0,0,0,
21,-83.08101452015323,-83.4488130180305,-78.94470392983663,-127.06897785759277,-93.50958218236505,-76.65927168518178,-99.77955977235602,-137.52829309762706,-84.38942734555587,-88.75065318156048,-93.40977565855692,-91.13130524813165,-92.83909937659958,-90.62578667074959,-84.61129034615368,-85.64444989066965,0,0,0,0,0,0,0,0,0,0,0,0,0,0,0,0,
22,-94.18222189266356,-93.92326162033906,-82.3047217874828,-142.61758418740925,-97.13758621071025,-84.64194196076804,-125.42459377048192,-155.22638229229324,-79.1041961475581,-90.22321591965438,-91.0275123832825,-94.91261917004724,-87.25202217242067,-93.96191827028974,-93.98823520109866,-89.65705609429638,0,0,0,0,0,0,0,0,0,0,0,0,0,0,0,0,
23,-114.03404284115871,-108.66901348017093,-98.17535114505762,-152.01826324135087,-114.21475308530013,-97.08477922411649,-137.15299599811965,-164.91885421489954,-90.03075274022659,-99.84867987932074,-115.95662942290895,-107.48934159595939,-98.00804581939673,-106.03941904176374,-114.41408867487814,-98.77336559850005,0,0,0,0,0,0,0,0,0,0,0,0,0,0,0,0,
24,-123.5386315422099,-118.85634579594068,-113.98704577828634,-160.19238086073494,-127.90348439308083,-105.89790798750356,-126.1230637523813,-169.2241909565413,-96.69740862225072,-102.56941832691841,-117.78139020063493,-107.02159651032252,-101.94882377482753,-104.85307582530834,-96.595631066611,-96.13008394212676,0,0,0,0,0,0,0,0,0,0,0,0,0,0,0,0,
25,-142.14156942840782,-141.34363190888246,-132.7096168960171,-192.63870255911422,-148.6157876420534,-128.89240731647382,-156.69057921601404,-197.99682208042358,-119.43572833025097,-128.0433901238778,-128.46376779186178,-129.25872920683034,-120.50797119573652,-125.57614045077455,-120.26955307120076,-125.32346303147163,0,0,0,0,0,0,0,0,0,0,0,0,0,0,0,0,
26,-150.49118291827872,-151.5745928863872,-139.08036283828534,-197.79578034861456,-158.6528067292444,-137.2339936449749,-168.51797983701024,-203.23845311451697,-137.4127978880538,-146.39810369088428,-157.59646180471205,-149.17860805206743,-139.41654279988683,-145.31299061561873,-151.4997157500544,-147.65897177576423,0,0,0,0,0,0,0,0,0,0,0,0,0,0,0,0,
27,-136.32883625187765,-142.66369978339702,-126.42365149525939,-177.16519731890787,-143.99261272426233,-124.03303339275651,-135.24702745033355,-183.03790374459757,-127.73868799989417,-133.17010722590194,-151.8878441233158,-131.58402957641573,-132.19608041588026,-131.59510771204367,-122.39630244041774,-126.8157562998955,0,0,0,0,0,0,0,0,0,0,0,0,0,0,0,0,
28,-134.43856363444198,-143.13329444547708,-123.49687045600089,-185.63496411208067,-139.69454926994717,-126.35270965541966,-140.17129412983525,-185.8134988048973,-116.61403990781515,-124.89044472560971,-124.69271070069107,-117.51141805071788,-120.03997945781619,-120.15098515609303,-115.05161649806696,-118.46596098967714,0,0,0,0,0,0,0,0,0,0,0,0,0,0,0,0,
29,-135.50878060902107,-144.46928953110643,-129.7580037465092,-197.36149043112982,-147.64779361335493,-131.66237695945642,-154.80498209317918,-188.89954761676012,-119.59858829146289,-129.48948654812347,-123.0988414479967,-126.84685065228463,-119.94195046988062,-127.1610591833278,-138.61230773138317,-129.12063555773355,0,0,0,0,0,0,0,0,0,0,0,0,0,0,0,0,
30,-134.9267574589842,-146.8077023334484,-134.90602032447657,-193.6701583869754,-153.86845318076047,-131.83779188160904,-161.36359758835408,-185.76052016549323,-128.41649167982374,-132.60414151458855,-144.41762348514035,-136.80912023154553,-127.79150116396086,-134.09294187898564,-135.77502835406435,-130.80221854418497,0,0,0,0,0,0,0,0,0,0,0,0,0,0,0,0,
31,-151.27901142951714,-161.0338435865852,-145.7840514710775,-203.3244224367891,-165.02905254803284,-144.43222987037294,-184.14101237181293,-197.73122309546875,-141.29702596130574,-144.53909947208263,-171.42513895472337,-151.5108776377296,-142.96139332326143,-145.66343174030695,-142.223261978435,-139.57746828205646,0,0,0,0,0,0,0,0,0,0,0,0,0,0,0,0,
32,-163.629317170866,-170.23381133597962,-153.4878643052089,-215.81542587732088,-174.06656464728692,-156.32193317011502,-179.384188072895,-209.24360572547118,-148.50761494682703,-155.61720854957093,-181.0360015033759,-160.10488195572884,-151.26783511879648,-153.78589576933484,-155.03672787838872,-145.85567902312692,0,0,0,0,0,0,0,0,0,0,0,0,0,0,0,0,
33,-170.62548697932837,-179.53323186271277,-162.0026088356943,-222.49216354252218,-183.82485534192378,-164.424005428414,-167.87395292938953,-214.7262446709517,-154.33504917020926,-162.2915658730269,-174.24973107867888,-160.80580700618447,-155.48421748998524,-157.90575308314786,-154.26973936792973,-151.8976770894448,0,0,0,0,0,0,0,0,0,0,0,0,0,0,0,0,
34,-171.8178025935409,-179.382931086086,-162.47140307023272,-221.0577594058219,-183.44712569047795,-160.92504832153242,-167.12468575715747,-210.2647897548348,-160.3259821435539,-166.63686079064433,-172.30082707407917,-167.68509988335762,-162.06901149861005,-164.86223813037637,-162.64505106795238,-166.83618106939727,0,0,0,0,0,0,0,0,0,0,0,0,0,0,0,0,
35,-165.66113911678568,-169.62608932642746,-154.46643049760402,-212.32578946389825,-174.3798773187483,-152.84844366607052,-169.87166373484382,-203.40937947618755,-157.00786499979455,-159.055145293749,-174.78436209796712,-163.12633937665123,-161.09420617383577,-160.4007062274939,-161.92308013818194,-163.22762413855838,0,0,0,0,0,0,0,0,0,0,0,0,0,0,0,0,
36,-169.05763611533462,-176.58495623030086,-157.62722882470726,-214.94806736619316,-178.9236289423184,-162.50569055923935,-181.63037295977944,-205.8138220698522,-155.5021499097927,-156.28482702328068,-174.1944521188509,-155.86596941947127,-155.2512563580197,-155.83352011651846,-161.26221363278813,-155.82526498392366,0,0,0,0,0,0,0,0,0,0,0,0,0,0,0,0,
37,-166.0495325302373,-175.65124010770904,-154.0626132685262,-213.33010639153343,-176.7013019802603,-162.31191852153205,-172.63706666950702,-194.90048969634483,-151.0929164152825,-157.22541742126538,-166.25765955875733,-157.00569997456796,-144.805384246739,-155.2216622169147,-168.07587051251062,-154.55659422630097,0,0,0,0,0,0,0,0,0,0,0,0,0,0,0,0,
38,-154.17556333328207,-160.46467500078444,-142.8296779207166,-198.1153648684174,-165.99465882246938,-148.7322506193703,-156.61489212161024,-181.894769422416,-143.8086573514054,-152.8441655755524,-161.42256480916308,-154.26579221657383,-140.03851489119162,-150.45583185388858,-153.73136527383443,-146.85436122156412,0,0,0,0,0,0,0,0,0,0,0,0,0,0,0,0,
39,-140.6533233910954,-146.2501991776269,-131.41463276380486,-183.1747442083224,-156.1900432196382,-137.0249715722658,-137.2827334369422,-175.77679486467963,-136.80859146177056,-143.23553893352204,-157.89041004987712,-143.26801293568894,-135.04400609596465,-140.34200280305873,-133.13931598232267,-136.93520600031502,0,0,0,0,0,0,0,0,0,0,0,0,0,0,0,0,
40,-141.0053250839595,-144.9298200721478,-130.95141022004097,-184.64007300553814,-153.30924489426812,-135.4163669987654,-134.19758907966522,-174.89155172807835,-129.07023876315083,-132.88907463209682,-153.78496700243974,-133.18184712494215,-125.97143874704159,-129.9646804445248,-125.34916202933636,-127.89201875765922,0,0,0,0,0,0,0,0,0,0,0,0,0,0,0,0,
41,-163.28290682309625,-164.25080999126737,-149.94322924005994,-203.7366521368918,-168.6107299820094,-153.8570869254529,-165.99322282466147,-194.9909866156794,-148.9983284055281,-155.47347437076996,-173.17604632629332,-156.99409627056224,-149.03698893999476,-152.92686562950547,-138.1444264546062,-143.4462330837026,0,0,0,0,0,0,0,0,0,0,0,0,0,0,0,0,
42,-157.42651683341538,-159.77693725493648,-145.14761931477997,-199.97862158632967,-166.26363912197792,-151.9133517039411,-155.90019654385566,-190.94715665479586,-162.1318865096912,-172.05136745662787,-171.6612407821185,-176.1947169841501,-162.334575401106,-171.74044861503018,-145.7612770056446,-154.64204550059344,0,0,0,0,0,0,0,0,0,0,0,0,0,0,0,0,
43,-136.22356076739027,-141.44039621257508,-125.78986678648305,-178.0756191226232,-147.52136497729498,-131.453683959177,-132.34223739608478,-158.32671826584902,-134.49245826301714,-142.34960728750877,-128.86039184684768,-145.0777025027839,-128.92906283066944,-141.9053217252033,-138.43002944913786,-133.3357410733687,0,0,0,0,0,0,0,0,0,0,0,0,0,0,0,0,
44,-139.82674253336074,-146.2314431691645,-128.4012154097828,-174.8745372865088,-146.7247289212782,-132.60109428698948,-152.8486399813919,-154.71320304635364,-121.00823847495624,-127.31007854209045,-120.87508173597337,-125.91045479644156,-114.99476248937555,-123.69692321063846,-146.53344109468372,-129.5036316465482,0,0,0,0,0,0,0,0,0,0,0,0,0,0,0,0,
45,-142.01861205621177,-147.34330294522533,-135.06590329277358,-179.86220853479318,-153.01298929216262,-138.0394923330428,-151.25267560501266,-163.7741147585777,-136.50309879575974,-141.593132589763,-149.5157142107887,-140.2907156510559,-134.37045120036063,-137.7835301578949,-151.8408939009758,-144.6406301446621,0,0,0,0,0,0,0,0,0,0,0,0,0,0,0,0,
46,-135.85111853585576,-140.91568742404883,-133.8663849479333,-174.31998370565708,-151.34316253625192,-134.08787699322357,-125.87309493354064,-153.07959872219976,-144.86658839625622,-144.8790315731695,-160.18415432795047,-139.92226749541092,-140.33889257471697,-140.27486217228162,-142.40076612544706,-142.87619364394527,0,0,0,0,0,0,0,0,0,0,0,0,0,0,0,0,
47,-122.09071760956408,-125.44381045835934,-115.94095586690764,-152.34688714595683,-132.41099918550583,-118.01076698203858,-109.5949698314155,-131.85166649803358,-131.37309034863438,-129.70519392228599,-148.01163312106448,-120.56134018322273,-123.37463822261738,-123.48257585043811,-126.48531732863316,-123.86032733624685,0,0,0,0,0,0,0,0,0,0,0,0,0,0,0,0,
48,-110.18775501187756,-107.21858284639997,-96.2336148604492,-136.92321160903617,-117.29271325714794,-101.8639603258907,-98.94718924908427,-119.69076708604304,-110.86290966704007,-111.59937813864084,-129.25894625941106,-102.8536566664001,-104.67063315673673,-105.86408357620448,-104.34497591611456,-103.29167697603793,0,0,0,0,0,0,0,0,0,0,0,0,0,0,0,0,
49,-115.68147989591291,-114.20116128195993,-99.806132071937,-143.9517667457824,-125.75782312452094,-109.3189188395192,-103.31414908972701,-126.80945175315895,-107.58215042498401,-109.79787678399143,-115.96558643242471,-100.31677854838456,-100.45851315147492,-102.53304745023688,-91.99779609851606,-100.58902180799979,0,0,0,0,0,0,0,0,0,0,0,0,0,0,0,0,
50,-99.91808749044118,-103.9435011425454,-87.00377090248763,-127.81269857394842,-111.8522631153727,-102.13936121585706,-92.3179357995208,-116.27488527568038,-105.79214549589261,-110.47291181620557,-108.44372697206276,-106.95208036731127,-97.64704328883903,-105.2379311380575,-88.17695246041734,-102.95077269968886,0,0,0,0,0,0,0,0,0,0,0,0,0,0,0,0,
51,-71.24224594483316,-73.83538611871307,-57.526923148427194,-98.6941115580559,-81.23432939771716,-76.1489551639353,-66.52800038052061,-84.3573109493696,-89.08154183488367,-95.2185008458386,-98.04006992621669,-100.83944949117056,-85.40127059023835,-97.01541774061755,-90.58720429046407,-93.51240506185702,0,0,0,0,0,0,0,0,0,0,0,0,0,0,0,0,
52,-78.92878609990629,-83.77127692426889,-64.04614747105244,-110.25238244285106,-88.74780498744025,-83.67030023455888,-64.93704880448246,-85.62350035645012,-77.5417121186413,-80.66903817715747,-86.01018390067449,-83.6851043222485,-74.99164076757978,-82.77292288850653,-90.49741164924535,-81.90140432068054,0,0,0,0,0,0,0,0,0,0,0,0,0,0,0,0,
53,-90.5065371337364,-96.3905819586603,-75.99490922929944,-117.46105641236966,-101.33131702477594,-93.86178706949161,-63.65503218043628,-95.91800600297837,-86.13394577548443,-85.88850936946973,-98.22819221210142,-81.62612638964394,-80.92364364324041,-83.3070870218193,-87.00832041618295,-79.45823898035283,0,0,0,0,0,0,0,0,0,0,0,0,0,0,0,0,
54,-64.51888883276376,-66.33185500579937,-51.49768618012105,-82.3649394558401,-74.94206561606323,-66.11198817603479,-42.02237788509606,-68.93539495141324,-86.23280411654103,-84.45713566091021,-108.91104759561131,-80.5969321491765,-81.97675001407612,-80.9864333309119,-83.28009011465082,-77.53384054215297,0,0,0,0,0,0,0,0,0,0,0,0,0,0,0,0,
55,-44.4327638956258,-47.284719051996845,-36.464303903568684,-63.55196475990682,-56.44735000362377,-49.16042279100212,-40.01899419262121,-50.2740750813608,-58.23295576589004,-55.27625848712113,-81.42868919707244,-56.53029374049507,-57.120008527430144,-53.967900351990764,-55.159674303773606,-58.632423534682644,0,0,0,0,0,0,0,0,0,0,0,0,0,0,0,0,
56,-52.06454340860277,-53.521205364870376,-39.72262203402598,-69.31613712451164,-60.43995491851235,-55.66829008408835,-48.41325407108124,-54.51984797351281,-47.42149218361495,-45.631548425993834,-57.35441398401961,-45.762928135784655,-44.53936688456892,-44.80622108037265,-38.03761410508231,-48.23147855904165,0,0,0,0,0,0,0,0,0,0,0,0,0,0,0,0,
57,-50.81446471924622,-50.83758436767967,-31.74134043108588,-65.9163939074104,-54.13206244725579,-53.18769596771059,-24.32521206527598,-52.14067422074156,-50.49810537029195,-55.82040991676891,-36.18918121263894,-49.38960359200791,-40.4897699307352,-51.7537720820565,-52.73009161282685,-52.13555237146172,0,0,0,0,0,0,0,0,0,0,0,0,0,0,0,0,
58,-51.56646059116015,-54.50646970616927,-37.484514269528376,-70.3833326921267,-61.07458566208051,-58.32132126336361,-21.63466603667435,-56.84772661920256,-47.877509949209106,-56.758525105251344,-40.358493994434085,-52.40720291350111,-37.04560779133899,-51.67702773779707,-57.4516483622742,-53.06995610964933,0,0,0,0,0,0,0,0,0,0,0,0,0,0,0,0,
59,-51.89451954148975,-52.66436452842322,-39.923471679039544,-66.55570673899024,-65.53296823486147,-59.971627950727125,-47.64597610108831,-54.38022100628469,-58.12672230032199,-59.91414814020034,-85.27861871582353,-65.30161155875655,-55.230892763415945,-58.84380730560592,-54.05699852369955,-59.727607425130685,0,0,0,0,0,0,0,0,0,0,0,0,0,0,0,0,
60,-41.809363378591875,-42.457320396402636,-28.29767807158147,-53.54495428632749,-51.465537973487045,-49.468330293022,-39.45812599617427,-40.38264534818009,-54.058768256076945,-51.4884449121996,-80.40521482541062,-59.42609063040944,-54.230357960892505,-52.61476127966135,-55.4310734220531,-57.001028096297915,0,0,0,0,0,0,0,0,0,0,0,0,0,0,0,0,
61,-56.85706256335862,-59.44510928459835,-43.06595191682638,-68.1800283709097,-62.283165916076804,-62.01233623283599,-23.479936103063864,-47.52715996367636,-50.30812700797739,-49.45751530453738,-60.9932045445713,-50.906983933419106,-46.686529154758915,-48.881049654657744,-65.54063271461071,-57.194714409253315,0,0,0,0,0,0,0,0,0,0,0,0,0,0,0,0,
62,-45.51125724181733,-47.23210608587901,-31.90486366836887,-52.4350490388247,-49.15930910744133,-52.51613025182506,-2.3859686168243037,-34.630783840583035,-53.164841118733854,-53.624287745877375,-69.7726497430964,-51.03259753326212,-48.22659923731735,-51.28629467912896,-58.097984004991275,-57.548017626643485,0,0,0,0,0,0,0,0,0,0,0,0,0,0,0,0,
63,-2.769758714327267,-5.797774918218099,7.9585108461576475,-9.715440385272698,-8.091527678845264,-15.428178977875383,11.865375644971087,1.1620489629242847,-21.370263134895154,-24.324307064500456,-43.22693262580552,-24.682766484553095,-17.94693489265077,-21.82197284560759,-14.822837056960768,-22.42544034341041,0,0,0,0,0,0,0,0,0,0,0,0,0,0,0,0,
64,-22.47470994138135,-20.17239788427764,-5.775066485323826,-25.510571925846214,-24.312895594913776,-27.748183081901434,-10.497949554466778,-9.947994519780664,-11.414329117901627,-17.324042142754998,-26.684955996627373,-19.40790973289353,-8.235889479166822,-14.945573395976652,-5.377302664229308,-8.325207316892985,0,0,0,0,0,0,0,0,0,0,0,0,0,0,0,0,
65,-51.709093437605375,-43.72122280879091,-28.98006364665411,-48.19437719729713,-52.09682416233774,-52.03807673254016,-12.376185314721845,-31.11802685568053,-35.863685226889025,-41.02796896919371,-46.98171850746164,-39.70327766883617,-31.519912077166488,-37.39585699513155,-25.063312155829642,-29.87991316793286,0,0,0,0,0,0,0,0,0,0,0,0,0,0,0,0,
66,-36.21297831129165,-33.2157168164727,-21.110781808037565,-32.89377590689216,-41.92190193832971,-40.156596490656945,-1.9614944064217532,-15.152715172762612,-40.89387793185402,-42.17511455000173,-46.63374085989271,-37.89853747081316,-34.862873570111425,-36.84378497927614,-29.01070254953183,-41.763327236663805,0,0,0,0,0,0,0,0,0,0,0,0,0,0,0,0,
67,-40.09944411076412,-40.66856739053461,-30.514119428244125,-36.83607643592046,-45.157784544867596,-40.313553297185294,-13.907463208404593,-16.96882236787825,-44.31948136413406,-43.262029111300784,-32.058843300807915,-40.06785783587516,-36.29530719361358,-39.297061816202756,-49.33771227631269,-52.756414777184986,0,0,0,0,0,0,0,0,0,0,0,0,0,0,0,0,
68,-45.87842503767846,-47.34407121871746,-35.529424576619455,-44.97550351045493,-50.37817223162011,-47.548224704367385,-20.14210644272241,-31.34670177290397,-43.26282694695168,-42.71638550223737,-39.08951639806692,-41.35770232367739,-38.51109457307206,-42.245770243506584,-57.76489740019608,-50.37138739621979,0,0,0,0,0,0,0,0,0,0,0,0,0,0,0,0,
69,-45.783158131544475,-48.3736058806382,-31.85005717854001,-46.56570167127497,-48.08103596589841,-50.51740939336301,-27.619634190482213,-33.14534379336112,-37.442100507776985,-42.39609426140246,-58.76923038199359,-42.255931291407926,-40.31682944443463,-42.12116278513371,-46.65993232736325,-46.05850142054375,0,0,0,0,0,0,0,0,0,0,0,0,0,0,0,0,
70,-77.61352449198296,-77.56554408704437,-59.55988757646335,-73.31679446774028,-74.11179576492638,-74.49161181022276,-46.05035674109948,-48.79510789115157,-64.02669761603822,-73.30243925722411,-75.64455062753808,-74.4717111576467,-66.53275054033527,-71.13026934174599,-68.2959443150046,-74.1126802818628,0,0,0,0,0,0,0,0,0,0,0,0,0,0,0,0,
71,-72.29280364359673,-73.72302647194337,-61.429658096764335,-67.65322553399311,-76.37758077991538,-69.67232277100122,-48.412563473744044,-43.50780018211877,-76.55336916171919,-80.52602683350312,-82.55986883487537,-83.23232100958495,-77.32241991598839,-79.45181178726186,-78.13975945614084,-83.58051820013665,0,0,0,0,0,0,0,0,0,0,0,0,0,0,0,0,
72,-42.3580489588985,-48.639006850579456,-37.86970843565082,-41.73634622359238,-53.28281526642548,-44.669244545176895,-36.28962269440131,-29.61346461508392,-50.290023954310854,-53.160151609881815,-70.26876067422398,-58.42296730701831,-55.238587796240004,-54.503589961190045,-60.14270975638501,-61.51640491039274,0,0,0,0,0,0,0,0,0,0,0,0,0,0,0,0,
73,-69.42123620857856,-69.38884543444306,-55.40357497644877,-63.805350772831304,-70.36129080436288,-63.611532549853486,-33.12726009599022,-49.604002115586894,-52.509726427685386,-60.4868175410032,-67.49327923651737,-64.01771517923464,-54.62607846941876,-60.61181618750482,-69.05790431267712,-66.6860126334894,0,0,0,0,0,0,0,0,0,0,0,0,0,0,0,0,
74,-94.43017509889214,-87.31650780529269,-75.20653823164739,-81.09788830165517,-92.57514528871374,-82.07105542452388,-42.11548682954719,-58.5076763492314,-81.58310461822086,-86.64910443336225,-89.95121239517385,-87.30706742518034,-78.61207701819991,-85.12731483040723,-93.15764135206857,-93.9512714351834,0,0,0,0,0,0,0,0,0,0,0,0,0,0,0,0,
75,-89.82399978852455,-86.63716016873086,-77.22420848206774,-76.79966246620519,-93.87746951611595,-77.86079417351455,-63.86929498388684,-57.184784107893705,-89.13067322232817,-88.1062825739279,-102.03495787686686,-92.38119729752954,-87.92832189274023,-89.9285081424078,-98.83860242337953,-101.94037918572756,0,0,0,0,0,0,0,0,0,0,0,0,0,0,0,0,
76,-90.20221039520146,-87.96745950650029,-80.75203987430527,-78.11287159606857,-91.31504867770325,-77.83834379478617,-74.60142209846961,-62.01094222814411,-82.8487252391499,-82.09552613377915,-96.96985980215467,-87.15374818079948,-83.60595497513533,-85.6122923484542,-89.81561005694314,-92.88526520704256,0,0,0,0,0,0,0,0,0,0,0,0,0,0,0,0,
77,-87.74229647322252,-83.45310917563778,-78.781575283165,-74.48734341886934,-89.03860837428388,-77.82465507356366,-66.80318504218049,-56.93766524105611,-84.1014894705009,-87.18847048637383,-97.14322722791687,-87.85461923125803,-85.20605487132366,-87.39278099883687,-85.17152959062719,-94.2279583406016,0,0,0,0,0,0,0,0,0,0,0,0,0,0,0,0,
78,-89.8000898660529,-85.99249517469212,-81.93646581056497,-76.72512960637182,-95.27356982504625,-80.526710516122,-68.90481064919653,-58.19242786002768,-86.0128469055075,-90.61182285562177,-100.80493533573022,-92.82320961691704,-87.61355815487107,-90.76506836581301,-86.5648382830528,-99.5904206433701,0,0,0,0,0,0,0,0,0,0,0,0,0,0,0,0,
79,-91.41136804727584,-86.62304463060639,-83.54288774024303,-76.68495638804467,-95.57038567924606,-79.55288217971763,-61.081910881024804,-57.74743657061347,-83.78706155913983,-87.57247020200666,-92.30027925520469,-94.22208599920924,-84.73626988086765,-89.33942039817214,-89.28258925589265,-92.15090873665815,0,0,0,0,0,0,0,0,0,0,0,0,0,0,0,0,
80,-97.14339497643726,-94.01436699018674,-90.05610050864635,-79.72282548652876,-101.1489083551218,-84.57471711590262,-55.52626622315715,-61.74423118020727,-93.49244967136296,-95.36588217497622,-89.45310494668475,-102.30719109183454,-90.50574186260569,-96.59693404390384,-106.64097811567092,-96.21186221207738,0,0,0,0,0,0,0,0,0,0,0,0,0,0,0,0,
81,-99.1279740478609,-100.33831741516968,-94.34338329380272,-84.20081493422735,-104.048721730018,-88.96147838009253,-64.5600186929928,-67.67250404765122,-98.85185809585258,-97.34534075488915,-103.65292493184491,-103.9342940723003,-93.14586933288314,-99.97618865328879,-109.34875691138657,-99.59423641617431,0,0,0,0,0,0,0,0,0,0,0,0,0,0,0,0,
82,-94.50268859009358,-96.23287087888684,-91.85390721418877,-85.16991023535101,-99.12388876517333,-88.57405720053904,-82.66647916684333,-67.29026354839206,-89.39812208900342,-87.05326078239713,-107.02678483410246,-91.15723962601567,-86.17536749499995,-89.63200810037156,-84.80187869420368,-83.49592620558161,0,0,0,0,0,0,0,0,0,0,0,0,0,0,0,0,
83,-104.4041315564886,-101.34810156138676,-97.20491017224893,-90.54280585036737,-104.29118773594418,-99.17451647523923,-90.11235527641699,-73.101122459845,-98.51350114648233,-99.59076290265884,-103.68731530474994,-99.11714949092557,-96.98078526828877,-98.99057405550869,-92.2354239441635,-89.79507765026321,0,0,0,0,0,0,0,0,0,0,0,0,0,0,0,0,
84,-76.57350893597871,-72.8806621490882,-64.6639126385383,-57.17178331745744,-72.17502531563393,-72.80450619742734,-35.178737885901825,-36.46285239010337,-88.75896390092346,-93.13302303188549,-87.83046084601767,-93.08393998519895,-87.7135420561646,-91.77798525765023,-92.82459821858342,-87.29130754876371,0,0,0,0,0,0,0,0,0,0,0,0,0,0,0,0,
85,-42.24339296271715,-44.2755735379072,-34.50465461714586,-30.039688180002663,-44.01774283593447,-40.33537225711092,-10.63955998655268,-3.277679279036736,-46.49209277840404,-50.02209319677196,-57.98586186967212,-51.273775131472775,-49.09952671801277,-49.99034870989982,-45.76502843898046,-52.381819105353514,0,0,0,0,0,0,0,0,0,0,0,0,0,0,0,0,
86,-62.30661402799045,-62.54612088870132,-54.37776923110262,-48.96853065558672,-64.86336647460111,-56.47032462286855,-30.729259004634926,-30.394510845232954,-49.572617171239045,-52.0352911327909,-58.50433824101483,-52.704093397908906,-52.83628918868743,-52.96767128605474,-43.375639086961606,-56.78312198619808,0,0,0,0,0,0,0,0,0,0,0,0,0,0,0,0,
87,-60.39112620442811,-57.1456589618204,-48.791147513991774,-39.55317704759173,-55.343164686583066,-53.871789943410796,-9.812569399978496,-26.343828220125623,-64.40040541375743,-69.12698775708924,-62.989658617701245,-73.1198712722264,-60.64579011167383,-71.04492563529072,-71.13624881556163,-71.1355151818691,0,0,0,0,0,0,0,0,0,0,0,0,0,0,0,0,
88,-43.69661170402395,-45.57774723125278,-36.8031225533157,-27.447586907848653,-39.47998494335446,-40.789151417495994,-20.891822869629955,-6.536313998742102,-42.2307572332661,-46.81662752309187,-47.95937563570386,-50.496704428542806,-37.91797260413334,-48.58429137665455,-54.30092342344116,-50.990290556670786,0,0,0,0,0,0,0,0,0,0,0,0,0,0,0,0,
89,-55.85443934705561,-59.98312071401463,-53.091702436451264,-40.55102594828846,-55.716724951100915,-53.11799163318732,-44.60834329947298,-22.480967083100925,-49.05447238202528,-50.3764815390444,-62.6195596343766,-50.250966905904335,-53.93415645797132,-52.064833130404836,-53.92366456774312,-59.149801190591866,0,0,0,0,0,0,0,0,0,0,0,0,0,0,0,0,
90,-50.874436113492905,-52.2464724654898,-49.82345759700509,-32.184402641643885,-52.54154621805594,-44.848902141888594,-31.570668858874637,-20.81304614577582,-67.47456219644987,-66.45355716273225,-83.00638566640515,-72.3824257086135,-73.70926763604693,-71.51321100829205,-73.93210067851847,-76.31958143579662,0,0,0,0,0,0,0,0,0,0,0,0,0,0,0,0,
91,-42.96616676004723,-42.79406369096947,-45.212812206694316,-24.577106700253914,-46.71109113234226,-30.721865808628806,-38.1925012708705,-13.517809792302579,-53.36452196917156,-53.4883859649598,-78.55688543577988,-64.74036962855507,-57.71845396752243,-60.471134696301796,-62.827834866345555,-59.08431629162262,0,0,0,0,0,0,0,0,0,0,0,0,0,0,0,0,
92,-62.54213220393873,-60.59316801359433,-63.18791620179994,-39.995372183379544,-66.26303020234279,-46.515244202066896,-42.702566432758424,-32.30309037659842,-56.452812803370655,-60.19145638581919,-73.18717109728436,-66.46947884168492,-61.9194522204981,-64.71125159044301,-62.9154334003889,-58.34278986236162,0,0,0,0,0,0,0,0,0,0,0,0,0,0,0,0,
93,-68.34398435443215,-65.81478705414364,-63.60162463634989,-45.38679883508972,-68.41362127341321,-55.96937647500698,-27.81239452847916,-36.48757234537506,-71.69997873844898,-77.3265698115027,-52.98080331189698,-78.28672618998323,-70.94093175284549,-79.50161254421606,-76.46223748688615,-76.91097757424843,0,0,0,0,0,0,0,0,0,0,0,0,0,0,0,0,
94,-49.009045968687666,-50.32972321182709,-43.98266242598969,-34.14456947040948,-46.834794595344945,-43.14129593573921,-28.12463497741008,-19.748699543046857,-59.636346158061244,-67.63762813549053,-39.34338565496181,-65.10762112770215,-56.045327737389954,-68.06714162394273,-71.15790524262319,-73.80315054607402,0,0,0,0,0,0,0,0,0,0,0,0,0,0,0,0,
95,-47.79490432652916,-52.170861886619335,-49.13982071393622,-36.645249539805405,-49.10972010567224,-44.305403871169624,-37.15711285029503,-20.601889371528614,-50.12861397315902,-59.81974976538871,-60.30221712681235,-58.882247210974256,-52.47059942068491,-60.33114040038518,-67.28916023285949,-65.83776619474375,0,0,0,0,0,0,0,0,0,0,0,0,0,0,0,0,
96,-57.41878878838085,-57.35336879714201,-61.850291617850374,-41.18193538456834,-60.28764704152783,-51.55103821181575,-38.1423806210646,-23.07307381384868,-57.10605899551493,-62.74840491952639,-69.94721517246148,-70.60876118886635,-61.16092575524761,-66.16974539499662,-66.4403547798307,-69.45115823565911,0,0,0,0,0,0,0,0,0,0,0,0,0,0,0,0,
97,-43.39202379762944,-38.1313110395787,-45.710866703611856,-18.817430075065303,-45.99142923238602,-36.62144280118897,-31.591509898332674,-4.396380326639296,-57.4188108588125,-58.514357652796605,-71.62244300055976,-69.29795025187961,-64.26558851552483,-63.48696998010411,-63.73851527927362,-68.08852336047863,0,0,0,0,0,0,0,0,0,0,0,0,0,0,0,0,
98,-34.460004193962725,-33.199479508076166,-38.285324531558985,-7.094061735851685,-40.895551424968126,-30.059746585332277,-28.734657994390385,-0.027914237418670496,-46.89000623986726,-44.67855543040925,-73.01320863843655,-50.86533872747985,-57.298401637382504,-49.46635769596861,-55.94413540753312,-52.45698176691417,0,0,0,0,0,0,0,0,0,0,0,0,0,0,0,0,
99,-54.054935908596384,-58.28334304147032,-58.69545427076728,-30.922070460640686,-59.64741255482107,-48.14899692810657,-37.459109309591454,-19.961908961230364,-44.97291947739732,-41.717723342036685,-57.63557494737141,-44.17717068061547,-48.76429705609651,-44.248607429704585,-51.23133051087593,-45.64529124810743,0,0,0,0,0,0,0,0,0,0,0,0,0,0,0,0,
100,-50.12462906740936,-50.55095085086427,-50.35400863384009,-26.265449793146942,-48.57444318555251,-42.50199877862715,-22.88381425075485,-9.770880897162943,-55.80702020994815,-56.16309024376151,-52.00421228114111,-53.092513547248835,-52.19483257912867,-52.56853028880178,-57.08118211851273,-53.84803454527931,0,0,0,0,0,0,0,0,0,0,0,0,0,0,0,0,
101,-20.59663174462344,-15.654073421112557,-17.662966481160268,8.422958788512908,-15.61380772959102,-14.803720523410899,-4.495959271100471,19.343956267442017,-41.88597016156231,-42.51636373090966,-37.21410650843552,-38.93494750760281,-37.599741141928035,-37.92432522335874,-40.535883241285234,-40.384828613973326,0,0,0,0,0,0,0,0,0,0,0,0,0,0,0,0,
102,-22.959672866161455,-18.78701734856564,-18.554589853319243,5.595114606796825,-20.279791328661318,-15.581705844086647,-12.531189178509342,9.909521072862294,-18.60274663062326,-17.199832668756734,-17.328630735624138,-21.937000558588316,-14.274490244034105,-19.00684853400891,-25.449926598969725,-23.08869329911675,0,0,0,0,0,0,0,0,0,0,0,0,0,0,0,0,
103,-38.84975768279364,-36.081360334130906,-35.630204894208546,-13.52405839397054,-38.92219354934571,-31.9052327832996,-16.716735563885972,-9.42336590389382,-35.574530442209095,-34.160696209752764,-39.2513799759961,-42.082440807313205,-32.93150371413241,-38.89888103342437,-45.35456156243066,-42.22944699821967,0,0,0,0,0,0,0,0,0,0,0,0,0,0,0,0,
104,-39.190746558519685,-36.58841189070745,-40.72242746340088,-17.12928868288795,-40.78412376589065,-36.979616324310726,-28.160980461000776,-12.963356370060374,-51.13355088340914,-48.78502045986185,-56.533708200677175,-56.626434107632384,-52.56873083829902,-53.62977643946107,-54.21864733103229,-57.50256182230409,0,0,0,0,0,0,0,0,0,0,0,0,0,0,0,0,
105,-39.18856461426364,-39.95441407320936,-44.247819381383245,-18.00654585214164,-44.876813841694485,-38.77172259291212,-32.55222662513697,-14.23979395323951,-47.66144415820389,-44.46395641813177,-53.15958327269711,-55.04802273902948,-51.12859665746613,-50.391991708982374,-47.95054688838577,-51.508895610069025,0,0,0,0,0,0,0,0,0,0,0,0,0,0,0,0,
106,-33.80977124643397,-38.35834262104111,-41.373140994294246,-10.948518458702782,-40.72385963937662,-35.18390353849613,-22.690003642701924,-2.787374738723364,-55.446981464955016,-49.35282364766423,-57.26026460380915,-59.70151198780148,-58.28123950806525,-54.03418871529609,-52.81728606998725,-54.16674329464908,0,0,0,0,0,0,0,0,0,0,0,0,0,0,0,0,
107,-21.934761254786984,-25.533919431882758,-30.84938254864453,1.6879236597282148,-25.540034850930272,-24.80411998087093,-15.59745894864293,11.481092267870977,-44.543347358917714,-37.94996807279492,-36.56674765424381,-44.83144166324594,-41.50326067689092,-38.910436765797996,-47.81259882048485,-48.041986286753314,0,0,0,0,0,0,0,0,0,0,0,0,0,0,0,0,
108,-3.2924404866442982,-6.517760949101016,-12.510311401246692,22.489931281447483,-7.136832191508912,-7.187552693998845,22.733125233426257,29.002825827605744,-18.163749408940248,-13.959888896433597,-10.220848082954785,-16.600629964940886,-8.248300479399703,-12.244244541216908,-24.256889695068736,-24.968901706798597,0,0,0,0,0,0,0,0,0,0,0,0,0,0,0,0,
109,13.682541380524203,8.397832785738466,4.629112679014263,36.233579750621026,11.161855794301786,5.575804128017281,37.66970822169786,45.59585176638195,-3.3721692376480767,1.6262622177343289,2.3278073933935097,2.8455561187261615,4.739887272108515,3.8936898851644415,-0.15423933322422556,-3.2160961811172584,0,0,0,0,0,0,0,0,0,0,0,0,0,0,0,0,
110,22.06397442870137,19.768083991373324,17.063326670197096,40.946897473861924,25.225873835845977,12.138949105588395,20.260451625235977,53.34513717031943,10.154690419578799,11.17252225514035,17.448353469311737,12.377739914805279,13.888992643847875,12.27050956704199,11.004830956692523,11.141851018096553,0,0,0,0,0,0,0,0,0,0,0,0,0,0,0,0,
111,47.462061728692014,47.76690566265958,46.02543152283495,72.68465541092755,53.86804640401949,37.94825952511674,65.36027916678458,84.20799268761633,30.505929424226824,29.121193462805124,28.096867268979302,25.101078701412916,32.49169555370779,26.23511334387923,26.76415397677337,24.437305666204217,0,0,0,0,0,0,0,0,0,0,0,0,0,0,0,0,
112,69.32556615445428,66.5775675856987,65.70550666538263,97.60195899436917,74.81415961788335,56.85528064009411,98.58964272333586,108.99854575744254,50.72451164948985,56.974034907142354,45.61345658330507,51.13860092444712,48.987591140529325,51.94313694122762,46.84138236409228,42.588609206566915,0,0,0,0,0,0,0,0,0,0,0,0,0,0,0,0,
113,73.11290343324927,70.61821470930187,65.53762800489926,102.89187032508747,73.80839230556651,58.47084004781648,71.05181712562361,109.05255956577236,57.875063357229855,69.14937672745853,52.549693055391295,66.51961054982812,53.965726378087005,65.44510073899345,47.65708267831069,54.87332913757678,0,0,0,0,0,0,0,0,0,0,0,0,0,0,0,0,
114,93.53919653290984,94.6502838220095,86.76933431907062,128.72254736562877,92.2729316753001,78.14569046767475,93.56793528881948,129.89455650456904,67.57856216571187,78.37270345389267,50.55226830223055,74.50304889882051,65.70651170024578,75.19100150377096,58.02156378740195,68.0363400943162,0,0,0,0,0,0,0,0,0,0,0,0,0,0,0,0,
115,103.76817490710266,105.84176309678872,100.67825862983926,137.52301333627994,104.29886782622151,86.80270754369624,123.95457612371506,142.0268192809295,85.41846246497411,95.45011304877413,77.87986847365751,92.17303396645498,87.43994184766422,95.03705129797883,86.79201784625883,90.3071600451648,0,0,0,0,0,0,0,0,0,0,0,0,0,0,0,0,
116,95.70451634701477,96.91446123700621,90.59354334816047,125.55786181377604,95.75370310650592,78.89253053952825,109.6719898895916,136.2969761947124,80.80569749444916,91.56115886457005,90.6407110819985,93.50971760684929,86.42982516685947,94.43010818530966,90.83670121626722,90.66505620561416,0,0,0,0,0,0,0,0,0,0,0,0,0,0,0,0,
117,115.00090936157541,116.0700502994435,107.24397429880027,143.83281089088828,117.34665797657225,98.45550036132576,142.22018579499144,158.190971240792,79.68483210721456,92.95140135979118,85.27927023536357,94.00752015148622,85.00053326075422,94.524952706009,90.02021371815577,87.98874791902708,0,0,0,0,0,0,0,0,0,0,0,0,0,0,0,0,
118,122.44544144069367,123.36191977204864,117.07569017411544,152.6066307680622,127.35330807879674,109.99514061610172,157.39872877450986,160.67485815208897,106.53259182758792,118.60258279986604,113.57020069888368,115.90840373483344,110.30000877352168,118.07915468719847,111.50945631622734,112.04693985698655,0,0,0,0,0,0,0,0,0,0,0,0,0,0,0,0,
119,103.11813755311927,102.21907930591921,99.10229544239398,137.7359486568743,106.69913260620046,95.29478566390085,112.99235570785015,136.46221175823044,105.8417331549843,114.12398238664268,121.85525531643137,110.51903270408772,110.28221667972593,112.87532685355636,109.7347518876278,108.62453394004166,0,0,0,0,0,0,0,0,0,0,0,0,0,0,0,0,
120,113.35825525590997,111.58949892806136,111.21389467118932,144.21302868458068,117.3871897143265,100.55362113607934,129.75525995813584,146.7522174929462,88.08270016444872,93.69910482762236,100.68111911574046,90.47890720087243,93.06674053264513,92.5934298561015,92.59215985584791,89.39347038747486,0,0,0,0,0,0,0,0,0,0,0,0,0,0,0,0,
121,118.57579354749987,117.71080721894747,118.90450338565165,140.89481184779578,122.2791162480722,104.66932901742163,158.53573387104282,149.34026577223125,106.31442444141352,107.75750993397587,118.53991995582594,107.49209624578936,110.72914122130467,107.68364004608065,104.03337912422163,105.3964437964845,0,0,0,0,0,0,0,0,0,0,0,0,0,0,0,0,
122,95.12709708210566,94.93346930687203,91.94249772227705,118.8761519904559,98.5348463893379,88.35071068419575,124.68769663589609,123.77663180278378,103.36166749522579,104.3307822244236,115.2690380950591,105.87012922935108,105.0845250363495,103.55982713434562,95.58945070199965,98.45582876199651,0,0,0,0,0,0,0,0,0,0,0,0,0,0,0,0,
123,87.30440420621905,86.10131720547433,75.96680961653297,111.36281632873809,90.69709009944239,80.99300361849328,87.87278986410291,111.75869890050666,70.24183602651969,73.63073873718493,72.11504109567593,71.34098946751958,67.19165383172633,69.95872631727795,64.94712204244996,66.45984744225856,0,0,0,0,0,0,0,0,0,0,0,0,0,0,0,0,
124,64.20399055798646,64.5049083356678,49.48681386029868,88.91540220853325,65.25822763330348,63.62996743252909,64.64176126589918,87.03326153436656,56.66003018634893,56.76281472286325,53.791623211293505,52.22931403045323,49.60811138930906,50.898362349686074,52.31646991705007,52.75272980438059,0,0,0,0,0,0,0,0,0,0,0,0,0,0,0,0,
125,23.835312501446822,29.471606274036223,12.873719125816905,56.94270800720751,26.67451547612667,36.2083088661831,51.140992966261294,56.86078900071902,33.43889437356931,33.26551540120562,32.699377777358166,31.988837449373218,25.620608522512175,27.194901088474754,30.46987594378801,31.050511422897706,0,0,0,0,0,0,0,0,0,0,0,0,0,0,0,0,
126,4.940613441215053,9.648004131987907,-6.355759814994904,36.148654700420536,8.89151478920725,17.025132731934647,19.262559200581748,40.24469802697354,5.330032413151088,8.640145423026677,7.627857643350538,8.183404662650819,-0.6846705449244794,3.4303791085047948,4.211786414756048,7.188629596411172,0,0,0,0,0,0,0,0,0,0,0,0,0,0,0,0,
127,-20.1161483810785,-20.969377980355603,-34.239389471546794,4.095403500143279,-19.314795290955104,-14.70500061446737,-27.114658933758626,5.999118944096088,-14.148108716717772,-13.263683847780019,-14.396663583964866,-17.991363364562517,-19.849544708346922,-17.950717378095582,-20.32268605071067,-16.301573674770786,0,0,0,0,0,0,0,0,0,0,0,0,0,0,0,0,
128,-43.84247013047066,-48.42238558939299,-57.093232452036325,-22.73121525067917,-44.34494492280789,-41.61821981078293,-31.925084493033562,-24.682690028382428,-36.71454674931999,-40.01639876387186,-41.188904009239906,-45.8583632717089,-42.57392236675376,-42.45927479427287,-44.10061656507774,-40.75132119781068,0,0,0,0,0,0,0,0,0,0,0,0,0,0,0,0,
129,-62.402623390501645,-68.63981074057033,-76.10117659375938,-44.31970045465687,-62.98609791548467,-58.21327840823585,-44.24670770224404,-45.967940339933,-55.85298705370075,-62.99040566352227,-54.978172847438636,-64.76141689759604,-59.57211362841621,-61.82949001150316,-60.32899178663504,-58.2921766957173,0,0,0,0,0,0,0,0,0,0,0,0,0,0,0,0,
130,-91.81787025545377,-94.32327106001136,-104.06493696585713,-67.28742110377111,-90.83888448162458,-78.85194463861654,-67.104696372179,-70.08858300706603,-81.00778022565154,-89.706218129315,-75.45863299011285,-91.06310710994411,-85.42691227734566,-90.85291003364603,-86.33104641016075,-88.74151311069666,0,0,0,0,0,0,0,0,0,0,0,0,0,0,0,0,
131,-95.04781392069094,-93.71691041468362,-106.58297364998415,-67.35591028476063,-94.48882204302859,-79.75459524997791,-63.27404803902247,-71.28861952286542,-92.97707311269507,-99.1550660761717,-89.68096943442461,-103.55761328791144,-101.31685411591069,-105.25123729230982,-101.75141534727136,-103.691524066897,0,0,0,0,0,0,0,0,0,0,0,0,0,0,0,0,
132,-102.68052668020214,-100.29795805086827,-117.95522683144927,-82.26314115180186,-103.40913010641233,-89.59367930528254,-107.07624265496436,-83.83506692441746,-98.27149863721104,-106.27956792992993,-101.07274083827711,-110.03616563338356,-109.46781731401994,-112.33430337340968,-112.62296164577413,-109.06877880585489,0,0,0,0,0,0,0,0,0,0,0,0,0,0,0,0,
133,-130.40121377355916,-128.29071941903265,-147.73868944558637,-109.58543880006144,-130.114528874103,-113.02412609645758,-137.88128435689651,-112.85484754086504,-122.06131697877201,-133.50153394938644,-128.82155771684162,-135.40316168267492,-134.70173838753743,-139.73624861465703,-133.81886877554342,-133.90762916699782,0,0,0,0,0,0,0,0,0,0,0,0,0,0,0,0,
134,-140.24010254634172,-143.3699778118135,-161.0265359291327,-116.51649314429257,-144.57992674982577,-121.69288428065956,-116.70592654197027,-126.03079800129642,-135.16353260279345,-145.43895312505003,-134.69657232664315,-146.5276393433292,-145.07749900260737,-152.88384421976673,-142.54592905999934,-142.88469322111823,0,0,0,0,0,0,0,0,0,0,0,0,0,0,0,0,
135,-150.59019746423306,-153.67486318310245,-171.50184997590588,-126.01206550999174,-156.342468752392,-137.80615193843616,-142.16423733951555,-133.67698172164094,-147.4561224043538,-158.11971192043842,-146.07934581288714,-157.81847796495254,-153.38007201567564,-162.64769401462843,-160.4461856768658,-154.27992832686806,0,0,0,0,0,0,0,0,0,0,0,0,0,0,0,0,
136,-146.3542412829761,-143.55986500293693,-160.81312317211302,-120.12511946999773,-145.0908138989199,-137.52789893763406,-145.4387769778768,-121.45360492892813,-150.39430361255734,-162.6787998150503,-153.3653378001617,-160.60541480930593,-155.80152973383247,-162.42732609252508,-164.3367051221963,-158.50189191752108,0,0,0,0,0,0,0,0,0,0,0,0,0,0,0,0,
137,-131.8904552607866,-132.0623880054692,-145.06886406927285,-110.96059723369495,-129.62368434366303,-123.87245793307875,-117.25240947584902,-108.42294907724289,-126.61402334101751,-137.44146854866474,-120.50736658852105,-131.46819230759988,-130.41730545381168,-132.81966545488842,-135.63052571213183,-126.3128711491083,0,0,0,0,0,0,0,0,0,0,0,0,0,0,0,0,
138,-122.83475959938704,-125.18877602658544,-136.2259758260187,-105.58215273449603,-123.65873833926814,-118.86380271953617,-117.66652445977026,-95.48563359965371,-119.75865987818035,-126.83248521887796,-115.06906200963374,-118.24717639015763,-120.88395945836857,-118.77411481180332,-122.98993528278123,-115.92469547125064,0,0,0,0,0,0,0,0,0,0,0,0,0,0,0,0,
139,-81.75069146211436,-81.2841872626897,-92.58806028149385,-61.57479038885619,-82.40412684856634,-86.50953468284752,-66.82822538212335,-49.25103052945912,-104.57621632706682,-108.74828506614247,-108.34629614698157,-103.64097019920447,-104.71576522944044,-100.65478751007657,-98.60855775544684,-106.19597770205883,0,0,0,0,0,0,0,0,0,0,0,0,0,0,0,0,
140,-49.801840471516726,-52.69790767634922,-60.14721375950337,-29.88088948842171,-50.131255718934625,-59.618507102329616,-19.239855756435336,-26.142959500265974,-62.03109677325103,-66.3322254288199,-56.45859932559361,-64.22214136404673,-61.40984410553915,-61.77792134982414,-54.20168485265052,-60.779161727543794,0,0,0,0,0,0,0,0,0,0,0,0,0,0,0,0,
141,-44.04261536422285,-45.640638552520976,-50.658457557363576,-20.556738885251185,-42.362605731510094,-50.88846499406873,-35.34332871663571,-24.72475234965846,-45.984051100366486,-52.628211706326155,-37.73134794337315,-48.88218522116048,-46.4336887835903,-51.69879886393967,-47.9992508490098,-45.78767473888903,0,0,0,0,0,0,0,0,0,0,0,0,0,0,0,0,
142,-6.844400144725142,-1.8111522312623265,-12.35573647115951,20.170815180502373,-3.555614727151621,-13.02682833038854,-9.092434786044016,12.478199703546565,-31.158047182327987,-40.05449286516478,-30.886712492799603,-37.000953431711125,-33.16871817674189,-40.74077240251178,-44.52981536756435,-45.578308660362254,0,0,0,0,0,0,0,0,0,0,0,0,0,0,0,0,
143,41.47921735214301,43.911642699782604,26.736461631910593,59.955223212191754,38.3291573789966,29.03620074098944,52.26418026009348,56.11055078680124,17.779013852641572,12.52822378372306,17.530327404007537,9.732757342622632,14.146070011217942,9.967027718550872,1.442940097771702,1.5599145814994237,0,0,0,0,0,0,0,0,0,0,0,0,0,0,0,0,
144,63.165755350740056,62.658437525684896,43.72713095630753,78.12775316472556,54.75407581436999,48.068262165084555,73.34039544864598,80.58568726968551,50.290564614879926,54.0897527787876,44.48995337379862,46.602547290579366,43.598398668965054,48.98115314440865,40.815732765423206,45.91752663316241,0,0,0,0,0,0,0,0,0,0,0,0,0,0,0,0,
145,61.773151293747645,64.48786535523442,48.40995443818867,80.08523688473377,60.2464670595305,49.33794247471949,53.762061994459316,78.78820874109618,48.630466968217185,54.457249200039904,36.67090799353912,48.156645099397764,40.93067924811618,50.50750215545391,44.14977642894448,45.58834848151423,0,0,0,0,0,0,0,0,0,0,0,0,0,0,0,0,
146,58.55260478870786,61.3436015549185,51.50003399556681,72.6818506806232,64.49834869694743,45.74411770608664,48.19544634940552,70.99893341772571,50.40003679451081,50.72229680606181,41.653305039082575,47.240473476503865,41.42512935576558,50.6825496548427,41.53697879415101,43.28843524555958,0,0,0,0,0,0,0,0,0,0,0,0,0,0,0,0,
147,89.89679210669985,90.37390193109236,83.71676440816213,103.9255461370903,93.65643526433121,72.9367800519791,100.62689998739816,105.27485925258,68.88826596120228,69.83751286041232,61.743495870168886,67.11747877928642,60.20062735321599,71.6402300664314,59.42816230104954,64.41656932873516,0,0,0,0,0,0,0,0,0,0,0,0,0,0,0,0,
148,128.1118859712298,129.05457836548698,121.22333396223604,147.11457429715685,128.79010687649253,110.18016302469226,144.54636795629744,144.52584429888122,103.94418142615719,108.50737052661573,102.45582268195878,109.13965452507205,99.95499213982723,111.08323313590313,106.46944011361586,106.64281133360392,0,0,0,0,0,0,0,0,0,0,0,0,0,0,0,0,
149,133.30011981977975,134.2812680488067,126.76571238019356,149.1423339941306,134.05354755892665,116.29542503326519,141.33777014757345,151.24324643431692,127.50319993718699,128.85649313761365,132.69669441521242,130.87019665468978,125.63259642977535,130.49566917583667,135.46375919303625,133.1087974350505,0,0,0,0,0,0,0,0,0,0,0,0,0,0,0,0,
150,149.07831130089494,148.5007284204985,140.9417864259661,161.6608715420391,148.47206697949002,128.26851277322828,137.82478772825976,163.58726816684367,131.3133672348483,129.91916709704176,131.1399411341772,124.38794788973547,129.82786279089626,127.41167868009525,122.3281527885711,125.71259365673369,0,0,0,0,0,0,0,0,0,0,0,0,0,0,0,0,
151,154.46743519645608,157.51021011162126,149.42244554138574,171.62324993189293,156.58655690239945,137.63099731524937,138.03522831774046,166.55136700866754,149.56131598360446,148.45230291548376,146.77748390429397,140.78356740806396,144.68271671472894,143.43728384029708,126.45770351995134,129.99129775206717,0,0,0,0,0,0,0,0,0,0,0,0,0,0,0,0,
152,122.63040864674923,129.90087430846066,120.50976870106803,142.44224753797803,128.50898720329468,113.20658521188801,137.1428918606274,143.36760630961058,148.56923794946556,148.2126080491051,149.2836436974972,147.84456186491474,138.595554460969,145.07846530734446,135.68979824886307,131.43247315993784,0,0,0,0,0,0,0,0,0,0,0,0,0,0,0,0,
153,113.1425381993316,115.03965173659817,100.83116975548282,128.10803406950703,114.0561444113908,98.22409927837471,131.25446344915082,129.62859046743802,116.89948311703921,119.36249508691456,111.2908639904378,117.5060744477793,110.5430719148739,119.01885278322901,115.35694364080896,111.29330402617532,0,0,0,0,0,0,0,0,0,0,0,0,0,0,0,0,
154,120.1624189434518,118.27042502495615,103.21120936398054,133.8691666618066,117.71846523795713,104.50197603917456,122.60517149765407,132.87528527604553,105.73084658942177,111.13560854371273,90.59181426189747,103.69678481917263,101.91037960100303,111.74975563914815,104.51801386172049,107.4497425253794,0,0,0,0,0,0,0,0,0,0,0,0,0,0,0,0,
155,119.42612433387876,120.33413666274154,109.3311066373586,138.38480964716769,119.53872220959641,108.70820152118604,117.32020969471694,141.16422477655038,114.4879829204811,121.6998277710474,97.86880830063355,116.74586005041239,106.32955097814877,122.24137570240154,108.54226528723969,115.38131457346964,0,0,0,0,0,0,0,0,0,0,0,0,0,0,0,0,
156,115.5005505541281,115.32105031072761,108.06609648617166,135.44196369892398,117.62832445787745,103.27295587523768,113.18083745751423,135.5804043927916,119.04491509284838,125.27572600149955,109.25782028693885,121.20849088826995,109.7348466467872,126.7984705088644,110.24461715157621,114.88763238835139,0,0,0,0,0,0,0,0,0,0,0,0,0,0,0,0,
157,96.17732661544858,96.64682914159624,92.1846386866433,113.73661747173793,102.38199821753082,88.36878993393579,118.88327403324948,115.39558383167343,115.01007902161902,119.18146531017284,114.34116616713963,113.8315381177945,109.8341805889209,123.42185852046858,113.85942761174016,115.43625445734631,0,0,0,0,0,0,0,0,0,0,0,0,0,0,0,0,
158,92.11189119297913,95.20890084424992,90.06972242958403,109.9734436582962,99.96832301073353,88.54356471026088,117.59705969272196,117.7321209790102,111.5824225044683,116.1803479059017,110.51757487695025,113.47153984900035,111.93407639918041,121.62990264752575,113.60064521827267,119.2455694305912,0,0,0,0,0,0,0,0,0,0,0,0,0,0,0,0,
159,103.5725469032788,105.05417305583585,97.52252525626935,123.73094392311876,107.80485538168637,97.28904100572142,101.30435411085878,127.2303419790558,114.32799043987995,118.48132996790372,104.70310877003095,118.85600732654797,116.54232156890778,122.90549122937871,114.68486030444424,120.44490765812056,0,0,0,0,0,0,0,0,0,0,0,0,0,0,0,0,
160,73.54454780807033,76.88770256040709,66.7469865170865,93.45241466302558,76.75958297100814,68.45394247994318,68.44425224245137,91.74722135692046,96.38182259488502,96.18807997701907,84.27684949822631,96.7268314117222,96.1413452927204,98.80827990887278,98.6657144850454,98.66798305910756,0,0,0,0,0,0,0,0,0,0,0,0,0,0,0,0,
161,48.28243205044981,51.365846320651336,40.71502536822832,61.22625628741362,50.07139500936443,41.57218012926901,45.257250994437825,63.01787397659516,65.33252236808133,60.130975025047974,63.18890017749267,59.495782520912115,62.81650798756939,59.99219616875587,65.5150717167048,59.92188204536346,0,0,0,0,0,0,0,0,0,0,0,0,0,0,0,0,
162,64.28161646554823,61.05957070036412,54.68042913501385,70.71445149575428,61.83527150681061,54.46137157261875,63.31946630374903,74.30503487737496,61.223922048886415,56.64187381694916,70.66201004357276,58.43491307931131,58.129242577014985,55.23796934932511,66.32634412939318,51.82675423565687,0,0,0,0,0,0,0,0,0,0,0,0,0,0,0,0,
163,44.75404500641577,42.14292722510288,36.403450865231264,53.612450185650836,43.23678048540208,40.86766103630097,56.731628242076305,51.1476139302778,54.41466038492709,51.138354983307224,67.50727176566016,52.86311426543371,51.29992225620345,48.55569358135364,58.27544334448844,46.19451826731513,0,0,0,0,0,0,0,0,0,0,0,0,0,0,0,0,
164,18.447915728226427,19.91185891984045,13.641431136494742,30.60363607198923,23.95738425475074,20.504510376454107,29.37776197916042,23.51734182080515,33.4312366633257,24.660077148274112,41.74761939709468,20.986094489736804,29.266836007081256,20.17295001343492,18.283057925378003,20.623634133541238,0,0,0,0,0,0,0,0,0,0,0,0,0,0,0,0,
165,27.06860392541559,27.467541774004957,23.05284198437338,33.787303634282196,34.57681802961379,27.45227466503271,21.52451754817993,26.328075788791992,32.565173038920015,19.737830476423024,30.13908801692729,16.745424879401945,25.619161868532526,17.603255909380977,15.684515643712219,22.408596076705606,0,0,0,0,0,0,0,0,0,0,0,0,0,0,0,0,
166,12.34395407391612,13.930638037249256,2.4846212054915924,16.18149374344771,13.815406160708697,11.591846590520845,5.938625275443719,10.7515945585751,24.887941867569864,12.538524775867476,14.945407124382442,10.620312933711624,15.92449210283102,12.87889774185029,17.484718965763044,18.843759136317658,0,0,0,0,0,0,0,0,0,0,0,0,0,0,0,0,
167,-1.7794575569453919,3.412223939515137,-13.06918210919623,7.330587730072583,-0.6738020998381486,1.4869654295567507,10.368695618090793,3.530568052935589,8.305318457944566,-1.6697927323210382,-4.8471021230594875,-8.601197434555251,1.8490118451776936,-3.169089281216973,1.3781786992861815,-1.9491630216496354,0,0,0,0,0,0,0,0,0,0,0,0,0,0,0,0,
168,-5.435299965267184,-3.420762423486714,-11.47385666041393,2.5368800818038295,0.6041948542828237,-0.9310353891294234,1.5494597775487762,-0.1614351193334258,3.407895521107792,-2.9999972803974098,-9.655887113743038,-5.460370158993637,0.43283572723581193,-3.1442743507215916,-2.044193456441685,-6.88867022569655,0,0,0,0,0,0,0,0,0,0,0,0,0,0,0,0,
169,-20.502031992787884,-20.833810803943205,-23.549442346256335,-14.519975453614414,-12.762683067725504,-19.05240410879257,-28.69880144108579,-11.579492445385824,-7.508030121278154,-14.897002350955876,-13.078445778747703,-8.158761732364518,-10.62980924752057,-10.896301961866596,-14.678950871328531,-17.795546841028937,0,0,0,0,0,0,0,0,0,0,0,0,0,0,0,0,
170,-3.414406268012513,-0.35526055849698324,-6.5556246282432085,6.184641280692734,3.2346903905296998,-4.643518315072242,-1.3421598916505175,6.303224637857522,-2.9501841225401897,-12.856478924338667,-4.692094753937223,-7.772960233842202,-7.777288579142102,-9.065013756687895,-8.885976579626796,-11.344746273841247,0,0,0,0,0,0,0,0,0,0,0,0,0,0,0,0,
171,22.995189167391196,24.446133040134193,15.620758610239761,29.710383245266584,23.111271846599927,18.188646790219803,31.38000660802791,24.24455493200105,17.707351755499694,10.065738030033733,16.466717920323976,10.861008887435755,11.549833744684879,10.638055807436377,15.144116205769933,12.712753675560396,0,0,0,0,0,0,0,0,0,0,0,0,0,0,0,0,
172,24.98935795441082,24.243593400766674,15.873636142422093,29.036020551100115,22.764594824273416,17.903085692587673,30.460723209218912,30.059776392900083,19.755396523841323,13.639907154447176,26.834020135139358,14.453448785543394,15.485845205703669,11.901166225799312,8.120547912754528,9.531129141976109,0,0,0,0,0,0,0,0,0,0,0,0,0,0,0,0,
173,34.86177479323011,36.25718103546547,29.28839195867908,39.530782748326075,37.07148308058437,26.97977922026283,35.98059629312391,41.42443444126907,30.209369889729004,23.258574263741643,36.36713668251856,29.14156902564152,29.76022572916498,22.698715958355344,17.998529682905264,17.414141842741206,0,0,0,0,0,0,0,0,0,0,0,0,0,0,0,0,
174,48.90436377868592,49.030985647533235,42.50318822567071,51.50195943865026,47.75113379840441,39.688560782392834,31.293281788691,46.894232332657495,42.6478022496384,36.32859204159683,35.5855122864899,42.37297407598071,40.713931244863375,36.136336481348245,39.288357565001185,30.16187502793045,0,0,0,0,0,0,0,0,0,0,0,0,0,0,0,0,
175,49.24323195244361,46.80928388286448,38.24898910829286,52.675806216566606,45.46920956982942,42.0118502030714,25.902863475259046,43.623899995204724,37.68428653055751,33.29297012780954,26.291706703153636,29.4599318488606,32.41973839287731,30.444562072993158,31.39809550104102,23.584656056188564,0,0,0,0,0,0,0,0,0,0,0,0,0,0,0,0,
176,40.45731641266994,39.42579638818507,28.70672069003509,43.032809217800384,42.03866390949085,37.15179774082271,29.297238203179056,35.00446452523487,43.25349365513606,42.57791230416573,25.698302545914444,36.46889966150512,36.97837509559712,40.271486970206695,34.03376668846242,31.645686629615717,0,0,0,0,0,0,0,0,0,0,0,0,0,0,0,0,
177,31.2069276433539,32.53076424012074,22.35256528552615,30.65720190910069,35.04941202847493,28.87569005168597,25.135063504257438,31.45038215464705,33.20944310277929,36.80677784276203,5.241448382748096,31.02982601312197,24.931637925259846,35.69708485073478,25.610317782620346,23.996279453803872,0,0,0,0,0,0,0,0,0,0,0,0,0,0,0,0,
178,33.30613072344106,33.603145436907496,23.48220916141662,31.05609033032161,35.41543392398805,28.560542234318437,29.110628286994114,30.12941988522172,18.264572806868358,23.576682097986236,0.033628638035537506,13.295738446398119,10.864465021170076,22.366387061339488,13.641770072121588,15.214401361018567,0,0,0,0,0,0,0,0,0,0,0,0,0,0,0,0,
179,42.94263547208352,42.02849847210675,30.201595233752748,40.69741691088211,43.664289941367066,35.72411568932597,24.989380010135598,30.255345841924598,32.351840289508175,35.77021183900466,23.822785443857185,28.281380792889177,28.6734771018075,36.60611256086433,30.182440110466874,35.897673616267966,0,0,0,0,0,0,0,0,0,0,0,0,0,0,0,0,
180,34.88301472200552,35.88411140587177,24.736760016473923,40.54488001182118,35.05944234418754,32.33869758424593,11.700012315383987,31.078909102439948,33.62468378963595,34.437557964461256,18.14596694850126,30.480622770163635,33.07416378311228,35.984150138171984,30.453840157852405,40.33265314427164,0,0,0,0,0,0,0,0,0,0,0,0,0,0,0,0,
181,27.19683032975231,28.85150496532844,19.254410592573475,34.71359298811621,27.575752912604308,27.759171639094014,27.392974645302925,29.159674206729274,25.475219409501612,26.532712936824737,20.084098939689298,22.225259647906526,29.88889589059284,28.15869605727868,30.68435757766795,39.18449334498867,0,0,0,0,0,0,0,0,0,0,0,0,0,0,0,0,
182,43.950383305427934,43.735598322561515,32.04298236088297,44.38054006457587,43.953876853983736,38.11951549669408,39.82199087549418,44.41966773029236,35.78228066041393,37.58457020016511,48.050506405971184,38.145085193109125,41.66540591436343,41.35590039991359,39.127852631277584,40.62341401061355,0,0,0,0,0,0,0,0,0,0,0,0,0,0,0,0,
183,48.15289495295748,45.20168876515553,33.600278880362254,51.45308284404922,47.127106522642606,42.60802010892844,30.515201317819532,49.72086521137132,44.55667142933816,47.42751067149749,44.906956961449964,50.73868634977143,46.396510774556475,49.65011795687131,33.19918849290804,33.28857331466193,0,0,0,0,0,0,0,0,0,0,0,0,0,0,0,0,
184,34.438661040735155,29.047172159833174,24.079265773444284,36.65661573068627,34.066264061975524,32.13123806292024,19.18937466376757,24.23128968893536,38.875350328496296,42.22045203585358,21.86870997130899,40.57802775830489,37.56880560549919,41.12598622042258,38.26564422720667,33.14729072124027,0,0,0,0,0,0,0,0,0,0,0,0,0,0,0,0,
185,30.765139469944273,26.61826186190042,22.282819845928888,25.391459008741712,30.85103170207232,22.81553112562635,13.161951033197568,18.391617917705247,21.815114373352014,24.31189379324818,7.632662239067102,23.993095581924443,18.516891781944345,24.645263775102922,33.36041310544852,26.46273210515922,0,0,0,0,0,0,0,0,0,0,0,0,0,0,0,0,
186,31.879267404767617,29.993300782322557,20.258735564368344,31.654778301760693,31.687977679715672,22.71650273186269,28.10477105422342,31.711818284588507,14.311524387663027,20.503308944087628,9.138230492538339,26.398046447356688,10.999247929375528,22.21627739496755,21.6740048892963,25.915578853070986,0,0,0,0,0,0,0,0,0,0,0,0,0,0,0,0,
187,36.51530732902008,33.004597152974405,25.996169327256826,40.34920693259491,39.68179261244535,28.888019569053174,24.586268654640985,36.223612147069126,18.224037191836146,26.768750155902666,17.99913227736984,32.863008976244075,16.53431668766446,28.651048922206602,25.489657913367054,32.75468767728377,0,0,0,0,0,0,0,0,0,0,0,0,0,0,0,0,
188,53.775237801572146,46.51921782148223,42.65012120551141,49.38858276451576,56.96914251260236,39.91789381427044,22.36665050142563,46.660529141435525,25.80399727837875,32.91076063133962,18.743650270868326,37.78282616467875,25.858641765049285,35.87344016414616,27.86214453592396,37.19247523423214,0,0,0,0,0,0,0,0,0,0,0,0,0,0,0,0,
189,62.668409342066674,52.32128349116641,47.51786483325331,49.32210442819198,62.40105262757489,45.90575548139741,48.95390270388073,46.702153486766676,39.47044008079815,50.15005118778548,28.281528966433537,52.87363536083623,43.95709177012967,51.55798800854945,38.03216398601928,53.049961304670084,0,0,0,0,0,0,0,0,0,0,0,0,0,0,0,0,
190,59.441071468247635,48.85889976483231,48.992941868599665,45.75808774971975,63.37734572208816,45.93818965125209,51.06049226565668,39.049497576199805,42.638239587688666,53.694906113763196,41.62041231008458,50.434611304106426,50.009450748302555,53.62012909059662,43.68346119328937,48.849852037326386,0,0,0,0,0,0,0,0,0,0,0,0,0,0,0,0,
191,74.67953346638731,64.840368435938,68.277868952367,65.7747989841898,79.68745126738656,60.392202240471946,64.58651529732145,59.96687146267014,50.010550266877175,56.46735737429708,48.63591873441585,47.48593288400215,56.570648887890464,56.53338564252069,51.46897080561392,43.02754515959429,0,0,0,0,0,0,0,0,0,0,0,0,0,0,0,0,
192,88.5147026157729,77.88182590848106,78.10817618646345,80.27845671541655,88.98001838327662,71.98320618928307,72.72841327222562,76.58903048781966,71.17583596712204,78.85968871192182,64.85195026220977,67.79713127878283,76.24722209070515,76.76098626571684,80.90261342669565,66.17922981213407,0,0,0,0,0,0,0,0,0,0,0,0,0,0,0,0,
193,85.34700563269232,76.22315174238199,75.89963541326162,76.16439350392211,90.03990661099684,69.98103737927713,60.94404420538423,71.07364666422531,76.15178975146875,84.3057320291068,73.01824015764208,73.47648898841099,77.62223652465741,80.70094738921091,86.28469096383385,71.2942514136223,0,0,0,0,0,0,0,0,0,0,0,0,0,0,0,0,
194,98.71671041692638,89.88532654626773,91.41188670339147,85.91416556155885,105.2396652759772,80.70655018313334,98.20662928548052,78.64686217419421,76.0143987998992,79.69684954399291,74.70085360443343,69.26636801672066,74.70277704439347,77.72340937188537,72.70676586874188,69.35255219985892,0,0,0,0,0,0,0,0,0,0,0,0,0,0,0,0,
195,108.4244769010069,97.55953296994159,98.38480529376272,91.06004529030334,111.07640389755011,87.48497669958151,99.92988041372622,82.85778507195093,84.01178509547027,83.05607141263499,78.37312067311986,73.63042855558496,80.07256857783756,81.4045743096296,72.29123410658755,78.1372681143441,0,0,0,0,0,0,0,0,0,0,0,0,0,0,0,0,
196,87.07577791101042,79.09255368944801,76.29130080186982,75.61948241818072,91.32253108246493,73.32609735077764,45.03556593382463,65.05992878214165,82.33459761511834,82.1994128280308,62.14993473149123,72.0325343411127,73.66201535808926,78.1023835139837,66.14564136838565,73.10871788977568,0,0,0,0,0,0,0,0,0,0,0,0,0,0,0,0,
197,79.1576598918331,74.304448250015,68.81444397971899,74.5368968943417,83.1893695430331,71.435867424026,52.409626008206445,63.23853707956556,72.48728322813406,78.93084078754475,49.6587307778154,64.57426265234454,63.51088340018732,72.33513162548793,57.29400330496581,68.5704613418765,0,0,0,0,0,0,0,0,0,0,0,0,0,0,0,0,
198,84.18658207165984,79.42436341308243,74.72318981589063,77.13875234390845,86.04432509390068,73.2622786089023,82.60634554973925,68.97799428289308,63.005455834470055,70.96660486097016,50.62082600807774,55.885211246866774,56.71330294093812,63.94015730437764,54.734887021281374,62.42458476245781,0,0,0,0,0,0,0,0,0,0,0,0,0,0,0,0,
199,59.10357003391787,54.03587647858112,48.88608642945212,49.24688115063462,59.54927330136,47.068675002262864,54.80486739277784,43.641525462880196,52.67051416905579,59.19559359002168,37.52712182540535,51.57875067242284,48.190716086153216,56.349288164725984,49.5152000368244,48.29457984383506,0,0,0,0,0,0,0,0,0,0,0,0,0,0,0,0,
200,42.76991680468758,36.04458587651695,30.173010298270825,33.7051012970702,40.888004566588776,32.41399028358023,21.3794510231904,28.369260094937378,40.827123515172495,48.24893879029696,24.088404020749973,45.985561682625374,40.395016948624466,51.24967028140188,45.87266959456865,44.15609448891236,0,0,0,0,0,0,0,0,0,0,0,0,0,0,0,0,
201,37.33342614548853,30.83667363246839,26.565882829925417,30.20936359971234,36.336712123285196,29.449849297304176,9.586837554480402,22.235363420435153,30.81319454263761,36.561413677737015,24.295201506998502,32.41276598723727,32.96255385517557,39.90159396080484,41.205626081509614,41.9991029075749,0,0,0,0,0,0,0,0,0,0,0,0,0,0,0,0,
202,14.750562524366556,10.186965424608772,5.262059797062784,7.19520660917624,12.80122516940835,10.618863907937333,-0.5372484240147282,-1.8496382707769405,19.720843185983522,22.41229157736101,19.500680689797377,16.362764015771788,21.248492998609407,22.499163418406276,23.20931041872221,28.394174020780643,0,0,0,0,0,0,0,0,0,0,0,0,0,0,0,0,
203,9.14895589795222,8.451753187674282,-2.0048020377341254,0.8449908188104014,3.074543118689576,3.756807123106056,0.855733876418749,-6.37228472611693,2.3033530970846563,2.7617670595676316,-1.7401439770368796,-4.568667450310215,3.9603679707542767,1.0353975117707606,4.4441330764147295,6.610410113477059,0,0,0,0,0,0,0,0,0,0,0,0,0,0,0,0,
204,9.755214093173954,16.774663340246928,-1.6079454469097971,3.798903971062243,2.8241874209797944,3.974745141128112,2.647270244399687,-3.912049816927846,-0.951683138464773,1.2284714923129698,-7.428115245550867,-4.834002289742333,0.48929757422298437,-1.6332084155256936,6.394722076073556,-0.48066012503175415,0,0,0,0,0,0,0,0,0,0,0,0,0,0,0,0,
205,-10.765533693370818,-2.7953755791287875,-23.13403113411221,-19.332145012271006,-18.4212732127123,-14.524530944467799,-25.904565930389044,-24.314496569524223,-1.5077525198650505,3.669301816579246,-4.507686484132616,0.9408138272646873,-0.5212945373966917,0.3318482550834645,0.5169724714539541,-4.70522081601905,0,0,0,0,0,0,0,0,0,0,0,0,0,0,0,0,
206,-21.520991622076735,-15.827697615680416,-33.96109156158374,-31.0132180730114,-29.263728185425826,-28.069791971573164,-47.54334575524334,-34.55710042663981,-26.803611109884464,-24.0261374342591,-32.4351553201214,-25.92539539096898,-27.53950414008667,-26.262173276796478,-29.552026683258546,-31.40361448199208,0,0,0,0,0,0,0,0,0,0,0,0,0,0,0,0,
207,-12.099284286526176,0.05654150657019663,-21.901052156132483,-14.043699544818143,-15.80317272059121,-15.89768357636427,-23.2798975199222,-22.938116255659928,-27.930550921973733,-26.18565919790714,-39.67093552502552,-26.089067484775683,-32.52234762880094,-28.420631194033973,-31.930798289794424,-30.400737869089028,0,0,0,0,0,0,0,0,0,0,0,0,0,0,0,0,
208,-27.013562198801495,-11.146399352113654,-37.62039229766408,-30.534334834763197,-29.956079799423392,-25.936364210339516,-25.263650985312943,-38.00779995814221,-17.32733188754773,-12.494488689031598,-27.94354436193364,-9.549002412219565,-22.81889612143923,-15.680834334900595,-20.069513809639204,-18.34614513155781,0,0,0,0,0,0,0,0,0,0,0,0,0,0,0,0,
209,-48.33080885628894,-34.42790111341347,-58.329212698235175,-58.088099752390875,-50.72357695844714,-51.231103853194824,-61.342453328128755,-61.444071966220385,-40.45778936279272,-36.78285776805134,-43.32747700230871,-33.85304249884392,-45.07788977603491,-38.57469567936573,-37.02252867976699,-42.71372825649229,0,0,0,0,0,0,0,0,0,0,0,0,0,0,0,0,
210,-28.60287287241586,-15.017638085478897,-36.48214154957191,-37.272820202889775,-27.309015301849307,-32.68485867570135,-53.886751243182516,-39.81190852725482,-37.38132618822934,-40.86846903918464,-38.171438498506404,-39.39613421611385,-40.082587522807216,-40.61453005405471,-41.885457074978284,-39.268699823291485,0,0,0,0,0,0,0,0,0,0,0,0,0,0,0,0,
211,-23.27106298692106,-11.539219350335067,-36.800779954573855,-33.50830299796678,-26.656954387547344,-25.561329372359392,-41.723593001089185,-37.151754406720556,-19.973460096755513,-26.127091386662286,-21.5201506557989,-25.174104741411057,-17.398467149330237,-25.826947805679445,-26.82501548298201,-19.260648279511162,0,0,0,0,0,0,0,0,0,0,0,0,0,0,0,0,
212,-47.494117054331134,-33.533534647503856,-60.69409596901053,-56.43918766569509,-51.2165015601955,-47.98884404100276,-58.330370089116016,-67.04128132326996,-43.98706002508804,-45.209039604866184,-39.02435011441682,-44.57475131402513,-39.53876207948382,-46.720666686984636,-35.539281678570035,-43.918638879895994,0,0,0,0,0,0,0,0,0,0,0,0,0,0,0,0,
213,-51.76877165878017,-33.5037830357798,-56.543476941179065,-55.1148202762555,-45.85016149391999,-45.42813434581696,-66.76805787368016,-67.28145704019623,-55.79814073656131,-56.89568610205846,-51.79447311189705,-57.29974252838404,-53.169164230847244,-60.32377101615891,-47.41939464041757,-55.720725686693726,0,0,0,0,0,0,0,0,0,0,0,0,0,0,0,0,
214,-50.65570051041243,-35.81099547101359,-57.796847626297165,-56.48972341106774,-49.60855980915695,-41.92265320737665,-69.83760503825359,-64.52277321933134,-48.30735824163237,-52.53610689226739,-46.12027131967937,-53.395181602125405,-46.09583236337215,-56.569180571973156,-44.74729276732203,-46.74166454592322,0,0,0,0,0,0,0,0,0,0,0,0,0,0,0,0,
215,-48.4400640725936,-35.16664409406732,-60.43757746273621,-54.3953987663048,-56.74581765687434,-43.55065391787797,-56.323613997002056,-59.50927774671938,-58.96142005951056,-59.69508563529646,-48.24497085115267,-60.47400871211451,-56.16877577976505,-63.66458837104486,-50.57076303185316,-64.1913139559626,0,0,0,0,0,0,0,0,0,0,0,0,0,0,0,0,
216,-44.311805530441575,-30.240250439255725,-51.60898811363625,-45.71109758849536,-47.65967796962501,-39.35104389020981,-41.893003219822724,-49.7061325665165,-57.23522202066622,-54.93485584134647,-49.97959800881494,-51.350430792927995,-53.387837324362785,-57.03615475045647,-47.69966703720367,-61.83111149680382,0,0,0,0,0,0,0,0,0,0,0,0,0,0,0,0,
217,-47.480126216760695,-36.53530348820043,-49.47349447945695,-49.849670108973704,-45.67253240002388,-41.28439301529777,-47.370006160857535,-55.04904400226364,-39.487564324832235,-40.80092311324249,-44.38291229997693,-29.882559317776312,-36.254318974132346,-39.04374399580557,-31.33650624229702,-32.33471097228765,0,0,0,0,0,0,0,0,0,0,0,0,0,0,0,0,
218,-43.59110211986155,-30.12130747604931,-43.342994128255604,-44.376319797478814,-39.83906990045071,-36.04103116919546,-43.1025193778332,-42.655101317506286,-41.39359842120556,-46.29392662372987,-43.63311892822832,-36.468740153838176,-39.543175782129836,-43.5120431284778,-31.67090193377269,-37.28029697790251,0,0,0,0,0,0,0,0,0,0,0,0,0,0,0,0,
219,-33.87144425072228,-18.00454088042231,-32.954638650218044,-35.54565489276146,-28.148337423608105,-24.40824582937059,-41.429647789368396,-30.894186739500782,-37.43391935047826,-41.598465956260526,-32.99831636647747,-37.64896718297199,-36.07351756921085,-41.33070300375671,-28.304636847611167,-38.16528801389093,0,0,0,0,0,0,0,0,0,0,0,0,0,0,0,0,
220,-17.973408171865707,-10.013209093445944,-20.431348436080064,-28.396430538916505,-16.48369348140804,-13.284256495272142,-32.22693563075631,-32.04722681486991,-12.302030328607643,-18.737766361208195,-9.887891343747075,-17.851737661088503,-11.861728823753676,-20.557198943583025,-17.374349259732515,-9.951730428547648,0,0,0,0,0,0,0,0,0,0,0,0,0,0,0,0,
221,-13.348912587520289,-9.71878044020275,-17.438819753804317,-22.529084382015107,-14.268987406010549,-13.364681739217112,-10.28898342432473,-28.358359804471867,-11.513171204365179,-21.798689348089997,-6.774925365560922,-21.505531408501295,-10.413362434759843,-24.05609344578951,-24.222016367537794,-11.721630189408984,0,0,0,0,0,0,0,0,0,0,0,0,0,0,0,0,
222,-23.061674142064522,-11.710489666727192,-20.891682360287557,-22.38333230883552,-17.587644360390506,-17.461503410134128,-12.974622012249672,-28.452669452131165,-19.08192651482573,-25.485181991111705,-13.414765876035556,-16.838760462515175,-16.760201566518287,-24.891223710434257,-15.46458798870377,-14.292864990697534,0,0,0,0,0,0,0,0,0,0,0,0,0,0,0,0,
223,-4.324442101747156,13.353474992329708,-0.032373091012644295,-0.7987429025687582,4.67787584060752,4.002329453740085,-16.53090354975282,-3.8985690742295454,-0.19501285068047025,-1.9154152353913432,-1.1958911228517977,10.958607269653669,2.381703856297552,1.1847895898644367,12.320967877926645,8.875275657499795,0,0,0,0,0,0,0,0,0,0,0,0,0,0,0,0,
224,16.16717933042858,29.365065913026417,13.549144159808197,13.733711194071716,20.837364781897012,17.825971795352878,-3.82473801116517,17.688503857200963,15.013361456865638,14.107136148692021,17.091046659011113,16.022984437664228,20.025499768022417,14.75137140309499,22.076348747819512,13.008768536267247,0,0,0,0,0,0,0,0,0,0,0,0,0,0,0,0,
225,15.564460786930072,23.031239766408238,12.007330698147594,5.8726552499945175,17.808805458000982,15.309650107367805,14.298180933698944,7.530629730379486,17.092466980401998,18.469204183765775,24.88732298092985,16.96042862737786,23.30024555410348,17.754565419499503,25.12478591850598,12.252187416757266,0,0,0,0,0,0,0,0,0,0,0,0,0,0,0,0,
226,22.954171197253963,32.15878965621194,23.322134453473346,14.55280412221823,28.86015026556234,28.51693296481777,22.063731888897422,12.94451762079832,25.723739425983823,27.61882305421181,29.358702730644573,30.233325826345457,27.85312134173904,27.802477625146913,35.64736936981576,28.804469908486105,0,0,0,0,0,0,0,0,0,0,0,0,0,0,0,0,
227,17.902385299256647,28.955885588069886,18.389148750350916,16.495120447540145,27.880937738828226,30.156031279291184,17.759196862430947,19.68478134731348,32.72042341877031,32.42739255149321,30.56197130125518,34.529043085952566,32.36108660792058,31.694050329608032,40.43480125653901,37.736472431750876,0,0,0,0,0,0,0,0,0,0,0,0,0,0,0,0,
228,-1.2987020175505646,6.410662546440248,1.5253881091395778,-1.2601190889028089,9.286061681550942,14.345871778894821,14.382459009881991,6.549655623231855,26.574296354908824,25.50031796280428,19.958912465867407,31.32044849457437,28.203886918554772,24.409585319134095,33.652250553475525,30.60536483308595,0,0,0,0,0,0,0,0,0,0,0,0,0,0,0,0,
229,-17.054585939555807,-10.481306787754358,-10.086166224260332,-21.146319952458402,-7.9485966663445495,-3.8953763544794846,-18.307289529921988,-16.285435228799336,12.25284135584959,6.454189234691398,8.771095717401963,15.59000207545673,15.39551287629817,6.9020716873144465,16.46901512691103,15.31634590884957,0,0,0,0,0,0,0,0,0,0,0,0,0,0,0,0,
230,-31.498542316448038,-25.67691879705427,-26.85754700022897,-38.45564145551084,-26.688309916193898,-26.50792863887466,-40.36414150654506,-41.75406720324666,-7.117239168451892,-20.50533238270942,-2.763225526375134,-11.387388471837497,-2.6575398355907787,-17.374468815993204,-4.800110039277303,-5.3046247597630725,0,0,0,0,0,0,0,0,0,0,0,0,0,0,0,0,
231,-20.27722630707932,-17.962295527758737,-19.24954651419374,-27.143937152237857,-18.84442399100198,-21.64119211785712,-4.317467521627986,-30.441004060713194,-15.404928987275246,-26.988284258071822,-13.362871697658889,-15.751242736232772,-8.20110860300349,-21.7772291840807,-7.789818753795746,-11.992348191804108,0,0,0,0,0,0,0,0,0,0,0,0,0,0,0,0,
232,-17.542483923151075,-15.094684456481922,-14.563441575548346,-25.260226059771973,-13.891615302274268,-15.27454210866561,-15.94143340990493,-18.25961606949809,-8.180211409693722,-14.251898167216105,-5.4092952665584555,-3.9539763545943103,0.3285860275601671,-10.113369564650085,-0.7335519819107503,-3.582517261515484,0,0,0,0,0,0,0,0,0,0,0,0,0,0,0,0,
233,-38.69802451734735,-36.4307368161131,-36.04826214468331,-45.3965439847146,-34.335797639102815,-32.920424327540445,-52.26977564914695,-37.815543688862896,-15.62517398479829,-21.25462641927708,-5.239763391511488,-11.669073453804351,-9.030130760550499,-18.709959238884164,-10.111377024267306,-9.430436473333788,0,0,0,0,0,0,0,0,0,0,0,0,0,0,0,0,
234,-30.672035638694844,-28.68903498063989,-29.74287430217587,-31.64051178756481,-26.285917666209603,-27.640031966697475,-16.86532862277776,-33.26367112556805,-24.808571825651285,-27.50072918515076,-18.473611575338776,-16.968833535725405,-20.488481189003288,-25.163268070774524,-13.37487494769826,-16.432149343451357,0,0,0,0,0,0,0,0,0,0,0,0,0,0,0,0,
235,-21.751225373722086,-16.56929466275681,-19.83302797331997,-21.68765624431193,-16.083170662941036,-18.764721070899732,-10.281853326575273,-25.41553064826539,-22.010197276161296,-21.220819489128836,-22.276010021477294,-13.319615817268389,-18.879728230240445,-20.650356091187486,-15.014928925883428,-16.501184034912747,0,0,0,0,0,0,0,0,0,0,0,0,0,0,0,0,T1
236,-21.016894483335204,-16.76983642708022,-24.03091956458912,-22.463305145985274,-22.070066051873194,-17.54730107268911,-39.12498301296627,-25.63956604896001,-19.61839413720569,-19.46692202508181,-18.930124164406266,-13.61505288077629,-18.114668203758995,-20.391702472535954,-20.49370470374688,-15.077671461173498,0,0,0,0,0,0,0,0,0,0,0,0,0,0,0,0,
237,-12.628824610724656,-8.80790078118379,-17.126823272307284,-7.949784043755386,-15.827678412543875,-7.004391325953506,-26.5955646128697,-11.092254345313002,-13.305755574055526,-10.576733018464243,-9.503126676576592,-4.8766081229521365,-12.188017715677706,-10.329373114096636,-7.930114060011903,-5.2597301240180645,0,0,0,0,0,0,0,0,0,0,0,0,0,0,0,0,
238,-19.75539262933777,-13.476272345174277,-17.17979258144749,-14.379967160538449,-14.2817434017036,-11.225916374540137,-20.263597480892884,-16.922524840924066,-16.01976871383782,-10.150537830065725,-9.172111626675125,-4.397026669069147,-14.063805355206721,-9.990344296405382,-10.903268760365702,-9.1627172600932,0,0,0,0,0,0,0,0,0,0,0,0,0,0,0,0,
239,-17.90009284999676,-14.783910921929262,-16.838731695331784,-22.21584412815824,-13.132868870411897,-13.260885485747838,-34.25422617661298,-30.030414501783838,-16.130756836494538,-15.678909916215662,-13.004921147089574,-12.07008456735759,-16.055217506994037,-17.30075384246646,-22.60332492346887,-16.938961205174305,0,0,0,0,0,0,0,0,0,0,0,0,0,0,0,0,
240,-11.03838796826837,-10.490806079155767,-13.374549419129156,-17.37019853865743,-10.892243751842663,-7.052420366478604,-28.147682078813343,-28.962267843862428,-6.301847079106247,-12.69241917800261,-11.405422798616168,-14.063769250106505,-8.588593915517462,-14.56369179479459,-12.97710789020486,-11.38450249141016,0,0,0,0,0,0,0,0,0,0,0,0,0,0,0,0,
241,-16.613155252181606,-14.885963914154406,-14.7414057095658,-19.9292180054855,-13.26231134950099,-7.349978028839569,-7.319112483736937,-29.1787420244163,-13.942697155132834,-20.203548762585715,-15.964207602015561,-23.464996882732585,-13.949378041051663,-21.268203888084667,-9.566178799982662,-14.319390865338086,0,0,0,0,0,0,0,0,0,0,0,0,0,0,0,0,
242,-8.992855471622661,-7.698318612467862,-6.236836288965016,-14.11507229723044,-3.8872032772820724,0.042044839720304594,-6.949397807738777,-23.266563002755706,-17.283997541232587,-22.226020765725853,-8.624777415324491,-27.029413168207224,-13.192821492257401,-23.068381561416015,-8.876187896514118,-18.26795759458942,0,0,0,0,0,0,0,0,0,0,0,0,0,0,0,0,
243,3.690313168146517,4.929912909429291,4.509466580655399,-1.318192771496193,8.733282240019129,10.172134142276107,-13.218008925509125,-8.37591411841726,-2.3665458004964144,-6.99678384974192,2.6043876326544115,-12.340462388048351,1.9076772674162576,-7.359859680820655,-1.4262551949821578,-9.194970806035382,0,0,0,0,0,0,0,0,0,0,0,0,0,0,0,0,
244,15.057169487737156,17.11623889800887,17.34463679083559,14.11553660853076,21.91886106524271,23.88435329907387,5.308257670998412,11.73573245077511,18.32289946553528,19.42616182267833,11.744065400416465,21.098686563486815,19.520705811846582,20.398960007388332,19.392973857278754,19.821635580858988,0,0,0,0,0,0,0,0,0,0,0,0,0,0,0,0,
245,22.703969441819087,23.44063000397354,26.27164813713617,23.033216749068256,28.754914288923153,33.35115279018544,18.271556686434668,20.415624041262394,29.351270337888366,36.50778617472801,19.4517045211106,39.212922927713656,28.44167785387483,36.50701616946597,36.030120850272525,40.46229737433993,0,0,0,0,0,0,0,0,0,0,0,0,0,0,0,0,
246,16.250144062848936,12.764644279520844,17.147012208832383,10.73645436631833,17.117437347088075,21.648237084181375,14.714240588452533,6.82859967172687,16.371494699375624,22.826285719422536,7.994475589115375,17.809063457686957,16.847019384218818,20.921332769252228,20.007976171097972,24.08335895194092,0,0,0,0,0,0,0,0,0,0,0,0,0,0,0,0,
247,4.581752269036244,-0.7200155926340557,3.6827401576236944,-7.894459767667701,0.9576452352809035,5.28558878906988,-0.9315015615889273,-13.766016715104982,6.121262881259796,8.225207990045572,8.267497989871192,5.2705903730772725,8.203943161401025,8.138182788391326,10.358957580754119,10.13389497356653,0,0,0,0,0,0,0,0,0,0,0,0,0,0,0,0,
248,-2.9565828938848213,-4.026608021582497,-1.5970735909543414,-13.378287987856186,-4.469953711989,-0.10877849657337535,-24.387210789983115,-19.230678055425653,0.9941384727511569,-2.652840408098047,11.847598158088296,0.2916041563043663,2.0673759747415588,-1.5973099042175498,-0.506073306362719,1.5021996311288603,0,0,0,0,0,0,0,0,0,0,0,0,0,0,0,0,
249,4.164552092959133,6.156810496756853,6.5931144121108884,2.289498951063541,6.254971447500925,10.841721429561241,-11.764038736443483,2.793655343787961,6.430758707719384,2.054417189572625,7.748412893920182,4.6608303425136555,6.673976646508599,1.6623882054028343,-3.061812349684004,5.509771125840203,0,0,0,0,0,0,0,0,0,0,0,0,0,0,0,0,
250,8.12870352960525,8.065191321556043,11.556509153688442,9.579518541030033,9.963630770767928,17.62296256250633,13.221483068490976,11.072620767790106,26.706960391225838,27.92486163300559,19.985245196401763,31.20199641191928,26.768211087841124,28.012332161395882,27.158945414600048,29.011702641439072,0,0,0,0,0,0,0,0,0,0,0,0,0,0,0,0,
251,5.278757320388571,1.3066584596034474,10.515465960725567,3.2130567791194142,6.14773967321708,11.933007983611622,15.84549594965763,0.7874053806296786,15.537450534244279,17.73856523924995,14.460856957515404,22.33526272838256,17.72172153276729,19.137453526485572,20.12939327830209,17.502740392941945,0,0,0,0,0,0,0,0,0,0,0,0,0,0,0,0,
252,27.183816258701864,21.606525839228194,30.990221558256295,24.370044581282652,26.327211242802527,29.543978592938473,30.87336444948539,25.21470706822403,12.970497959200856,14.57687506961065,20.275427174279088,19.830872237440417,19.465336677346684,16.230260760904976,23.011596292182972,19.226979959973598,0,0,0,0,0,0,0,0,0,0,0,0,0,0,0,0,
253,33.249576557993535,30.131447398296828,35.66311008467927,34.78959266541041,32.30656800047581,42.2418240366555,28.7465136201036,38.368454001391896,43.412712302272574,48.76769850970248,52.52142041411387,53.58561692028884,48.92020836146973,49.82307773724451,64.22326803356191,56.250282813736284,0,0,0,0,0,0,0,0,0,0,0,0,0,0,0,0,
254,6.739568989189152,4.02861260967391,10.366194087553874,9.175774024523424,7.7150137783383315,20.144812553164286,1.6551761402149303,8.728585309494294,31.690319427023464,37.58910940614557,38.2582444649751,39.651296132546406,33.296948493442585,36.646749926224636,37.89697983662704,41.547740941249984,0,0,0,0,0,0,0,0,0,0,0,0,0,0,0,0,
255,-3.9675405694521206,-8.47419816642507,0.8733018765135512,-7.618900966469996,-3.1796669926083556,3.7146948659520955,-0.9677363746970293,-8.024432215014318,4.841973536707055,5.891476766482729,14.99406259893155,8.429016786122276,4.475043764395025,3.9977805024101656,-2.412842189252764,9.633595368443686,0,0,0,0,0,0,0,0,0,0,0,0,0,0,0,0,
256,-8.235547116425668,-12.579688077484343,-3.593742335691598,-15.430640844497589,-7.568720635474751,-2.5993633988141074,-9.739684268825322,-11.72414865170031,3.568819525583816,-1.4049554810936833,15.824845958052094,4.640249743084478,0.9710552205104896,-0.5941129416815798,1.3478545478526165,2.5084580151376947,0,0,0,0,0,0,0,0,0,0,0,0,0,0,0,0,
257,-17.917965676569143,-25.61577783974383,-14.51713759511538,-24.13667970802942,-17.45828155219232,-12.72778977415389,-28.290462385151287,-22.627338480176036,-7.955224031722656,-13.292362108696597,-1.9144113078446203,-6.550610551855097,-9.597167136889759,-10.760633839621033,-11.306692813990054,-11.583450046423291,0,0,0,0,0,0,0,0,0,0,0,0,0,0,0,0,
258,-23.195487875603913,-35.05353486798902,-21.067789621187927,-32.07180829146805,-22.51522935062087,-19.650291768451453,-23.23331337543644,-31.95465212026646,-21.25605664442991,-22.213645877320854,-18.44238250615937,-18.532762925936815,-20.36904200552879,-21.32245352284637,-24.13473869481969,-18.566270491329625,0,0,0,0,0,0,0,0,0,0,0,0,0,0,0,0,
259,-28.31997215084942,-40.039440981456494,-27.457991006807337,-39.503247473123714,-27.318923533475672,-25.28105426244053,-23.632183618830656,-37.46122641769108,-21.022187425040947,-24.61061441139136,-16.818667062496274,-24.603655758457965,-22.03440107257035,-24.07561877621599,-16.78268066563784,-17.980730440749554,0,0,0,0,0,0,0,0,0,0,0,0,0,0,0,0,
260,-23.332914489418414,-34.55299422785992,-23.653061169533068,-34.27576306158216,-24.841864743750904,-21.809523996773276,-20.10945632034271,-36.598620356978365,-21.273284397458717,-30.17010720767612,-18.418366271339018,-30.454529581547078,-25.0811759689555,-28.94632383788495,-19.626336249713425,-24.601184946213454,0,0,0,0,0,0,0,0,0,0,0,0,0,0,0,0,
261,-26.654021159328195,-34.1328283507466,-25.082216141302816,-35.080867568570454,-27.199286357173573,-20.110251350415844,-19.916299397348116,-36.67716207577533,-23.100776029580896,-29.932307089815144,-21.35909433539099,-27.856693525407273,-26.351925535856335,-28.73645932230545,-27.382915397691914,-27.594869822922004,0,0,0,0,0,0,0,0,0,0,0,0,0,0,0,0,
262,-46.03266894094059,-50.50034234904744,-42.018376248932334,-49.538834530700576,-45.20921155609798,-33.52929308028302,-53.10792897943735,-45.51326623612591,-33.238962073406476,-37.11212521175379,-25.901099300188484,-33.83609802010426,-35.34384663335522,-35.67237318448453,-34.44331346454375,-35.44095399557243,0,0,0,0,0,0,0,0,0,0,0,0,0,0,0,0,
263,-34.86493006758457,-44.31016997125113,-34.77978815385178,-41.18994947709068,-40.2664476706894,-30.22194345269136,-50.624375261114594,-40.00914187699371,-40.28261801824337,-43.46562129063692,-30.964324295336993,-39.01960766189566,-42.280278039894895,-40.982616999097495,-37.24193574537793,-36.35861405785841,0,0,0,0,0,0,0,0,0,0,0,0,0,0,0,0,
264,-14.876440365430675,-27.595934987099255,-19.078026857880282,-26.740416384213773,-24.884396094701394,-16.964435887218933,-17.589345164782294,-25.76004203693588,-29.60564946368816,-30.531945791619844,-22.619894673185062,-24.398068135917867,-29.54434296543565,-26.8292300744429,-26.94953190354795,-20.4888936667656,0,0,0,0,0,0,0,0,0,0,0,0,0,0,0,0,
265,-23.801067852344968,-33.87393487673858,-26.822480339141457,-34.9510690054567,-31.0281872144826,-19.960824437901042,-16.009755522542026,-31.30970089942019,-25.201728255793327,-23.403067606015092,-8.034394644762516,-20.339471068378582,-21.65834223376091,-21.767542872286235,-21.921275511909073,-18.63165654900966,0,0,0,0,0,0,0,0,0,0,0,0,0,0,0,0,
266,-25.97082755702251,-32.8096151868957,-26.44471383594359,-34.80705406928234,-27.17003171521288,-17.882855689897557,-26.38009360447966,-33.95474704435377,-29.482554848845027,-28.46376398902581,-6.410467030428242,-30.395167156651947,-26.319673038059797,-29.973033221744455,-30.429862358471553,-27.217008366091,0,0,0,0,0,0,0,0,0,0,0,0,0,0,0,0,
267,-15.902276178800012,-21.49284642578928,-14.527041923949646,-23.003405341087714,-15.994260469029363,-10.261131764818465,-36.01570192504249,-21.64742619900462,-20.218331379358357,-23.336192983351594,-9.936786463809447,-23.187166354480425,-22.319602935724514,-23.639546835135217,-27.595653396600763,-23.671041917321574,0,0,0,0,0,0,0,0,0,0,0,0,0,0,0,0,
268,-18.981869603858243,-25.585048007430636,-17.089899336050582,-26.6099144479927,-25.243757782811883,-15.981922795158589,-28.304698878581362,-23.15704688763857,-11.587589985318383,-16.11164605073138,-8.119164838409649,-11.140226285945364,-16.480857139449043,-13.791688490536796,-9.303772717071709,-15.182976701206652,0,0,0,0,0,0,0,0,0,0,0,0,0,0,0,0,
269,-27.08179856948329,-34.81928435985306,-25.982871692801382,-36.26447768561212,-36.220504315295706,-27.75553958879527,-6.308409277795786,-32.597089622647246,-24.320208787188886,-26.166379271894144,-14.659808905047946,-20.128540784827578,-26.514269505650468,-22.79614224879236,-12.138215704368374,-18.749129018413115,0,0,0,0,0,0,0,0,0,0,0,0,0,0,0,0,
270,-24.18340988367631,-33.17771926003343,-25.79160582903439,-33.492775347314165,-33.103086176016234,-29.44871732254551,-10.24793497235708,-28.30122274806901,-35.31811847214503,-34.89481565309495,-21.51048287302227,-28.98079341612297,-36.12181300805918,-31.802484546871316,-32.97805007639002,-30.413659561178136,0,0,0,0,0,0,0,0,0,0,0,0,0,0,0,0,
271,-6.986254041244024,-17.396479426463365,-10.207821208038855,-16.898619188168713,-16.442286336332,-12.66564885675166,-18.410373872927792,-12.650028041709472,-14.663096028031635,-13.365635644026924,-0.8987204463279603,-6.280337299365524,-15.868259036366993,-10.517267197814238,-20.315800864338232,-11.348118952949452,0,0,0,0,0,0,0,0,0,0,0,0,0,0,0,0,
272,-6.150278842022303,-16.19406909165992,-5.816149336083054,-17.79785767032926,-13.204225881608483,-9.403031281451767,-16.4215062229126,-13.937739215137025,1.2598075581723585,1.8276419841852523,14.141762840886013,11.439486791810603,0.8332520379253658,6.801260573676764,1.5204492591290588,11.809410620498014,0,0,0,0,0,0,0,0,0,0,0,0,0,0,0,0,
273,-18.835327178713932,-27.139723325869152,-14.265924393089701,-30.641692338609932,-21.74574292082304,-22.61844341485224,-14.8671125750001,-24.563491271493024,-18.695918164400403,-20.501874797123108,-4.953913742540571,-10.910496657753836,-19.23910752219811,-14.874445167779214,-15.659483128235376,-9.017431154492478,0,0,0,0,0,0,0,0,0,0,0,0,0,0,0,0,
274,-5.592623753747412,-14.930229600242484,-2.673648581224498,-18.350573956734557,-7.586719434028863,-11.152266388032931,-5.315761581654961,-12.77984402945427,-11.055249115752993,-16.410536804149352,3.126476749387237,-9.482267183300827,-12.012114186625986,-12.985066659294155,-13.794103121896022,-6.397095937698957,0,0,0,0,0,0,0,0,0,0,0,0,0,0,0,0,
275,5.650522189195965,-6.4237369628512635,0.8222634701456708,-13.385864778951193,-3.896771332290004,-2.6114012134199385,-6.739624618769835,-13.290986130401368,10.625954785168531,3.3229020114421743,20.403429759490585,7.35257766223458,9.294152472446989,6.072092512968183,7.491744342312934,9.721432570713226,0,0,0,0,0,0,0,0,0,0,0,0,0,0,0,0,
276,2.0850505748528954,-7.160332136600339,-5.2120586904303705,-17.22286703613362,-11.206116497706665,-8.169798415823902,-11.655590159127737,-21.960290513477045,-6.179725177640776,-10.044602926725332,0.005344955086137304,-12.463044323215307,-9.757353227495017,-9.128964461282507,-7.96484286667625,-12.133909078078489,0,0,0,0,0,0,0,0,0,0,0,0,0,0,0,0,
277,0.39117465685517594,-4.190797343037509,1.4613553575404863,-8.164647179760262,-3.3663820377732705,-2.271186927107064,-1.263536060009987,-12.110614561340714,-2.1117087868333755,-2.542815127653519,0.8452343847710679,-9.833259759194448,-7.44130870290137,-4.708752293576325,-12.082477408303,-6.875032274728898,0,0,0,0,0,0,0,0,0,0,0,0,0,0,0,0,
278,-10.772693273927032,-16.203493701802056,-7.169998516618864,-14.797897144472842,-11.459430386099278,-7.789159532131839,-1.7291131499319796,-19.23192385068911,3.7011855778206666,2.083379592319279,5.540390905458125,-2.1647363270690043,-1.5484376806482665,0.5340289144059938,-6.676187417948938,-0.8344895766954608,0,0,0,0,0,0,0,0,0,0,0,0,0,0,0,0,
279,-13.95915397779467,-19.815639933321947,-18.40504677184402,-23.220139447780262,-18.854307975130837,-15.252510348531372,-23.24845877222932,-25.992179437817885,-16.891945553257955,-18.000120003999,-10.411187443287858,-17.482110736281783,-21.631309207385996,-18.19054456683294,-19.429556892397386,-20.510444143452524,0,0,0,0,0,0,0,0,0,0,0,0,0,0,0,0,
280,-12.06304085492195,-17.669802490490575,-20.739093494571193,-25.521268133611898,-17.598631942849867,-15.235643128672852,-41.122082008066975,-25.503481552852342,-12.471535231686953,-13.188412662588064,-1.1025612295407186,-11.760660671531813,-13.82576210925663,-12.975509271877822,-13.97376101807539,-13.080264586618913,0,0,0,0,0,0,0,0,0,0,0,0,0,0,0,0,
281,-17.21020179140365,-26.235506420897813,-26.160444758589303,-29.807421205234157,-25.316137495728604,-21.437010445944342,-27.998739122298385,-35.98727156875758,-11.973838748554002,-17.937630511247214,5.4138507789800485,-21.36493825456614,-10.059280929101217,-18.0827060975665,-13.221201569318879,-15.895716708571829,0,0,0,0,0,0,0,0,0,0,0,0,0,0,0,0,
282,-10.499725304027862,-18.07558615335861,-18.970955132125813,-18.73450757362476,-17.646071005523407,-13.888798228381765,-8.657239379469317,-27.563707880376917,-15.30515737199998,-21.364367098424907,-4.170011078225091,-30.821350481806075,-16.86088877614444,-24.082335118600863,-18.617941399714873,-25.995831738540225,0,0,0,0,0,0,0,0,0,0,0,0,0,0,0,0,
283,-2.5200927538518094,-6.481652189728685,-7.348711238548276,-12.345849185255155,-5.724018840797353,-4.032814375097928,-7.10680568069084,-15.281586723624756,-7.602071373517948,-7.812999080318626,-10.991203378395682,-15.951911423489236,-12.808411736885997,-10.428393316449942,-12.580085246128167,-15.431964400418245,0,0,0,0,0,0,0,0,0,0,0,0,0,0,0,0,
284,1.4691675211812552,-6.951853112747745,-3.1445440353517853,-16.17952033659978,-3.701176914054173,-5.443805073598085,-9.27760676705132,-15.808177401491232,-10.369424256976211,-11.486804653276234,-6.345430777241219,-15.46961020758469,-13.43681408098787,-11.199618131625797,-11.692465381414689,-6.918156798388811,0,0,0,0,0,0,0,0,0,0,0,0,0,0,0,0,
285,12.781126894772726,0.7859122829810374,5.4279685722879805,-5.792031981215857,3.3286764703006355,1.7034039349479038,-3.412914960843601,-8.510747860574035,1.197300855461421,-4.612454919445671,17.07740663878387,-7.976035731118545,0.373142892992,-4.288952916979847,-2.912697035901042,4.298827688221195,0,0,0,0,0,0,0,0,0,0,0,0,0,0,0,0,
286,13.936700183702765,6.419227715446546,8.425503113171857,2.312794456124486,1.4241552915365077,3.3681904360446318,14.415950191669381,-5.770537643861104,8.192007612495459,2.9264003743936753,18.90907362374901,1.9853492953975351,9.246158355362304,2.4140722451798142,1.7719336832047157,6.378528290626115,0,0,0,0,0,0,0,0,0,0,0,0,0,0,0,0,
287,12.420768353535344,11.47110035682017,10.433549399143569,8.531154418655884,1.7718222634442782,4.2853239745104155,15.51954716304601,3.3090949329197237,-2.567180934468614,-0.13606116578648864,4.66188154934573,3.5512271085780167,0.6956939239190173,0.3408578700207558,1.687370121632816,4.771937969228375,0,0,0,0,0,0,0,0,0,0,0,0,0,0,0,0,
288,21.15068415562533,20.849313837993556,19.709568287766672,16.884398719006725,12.406495181540553,14.439352532614944,0.05635578925711471,18.06608200495544,0.2654253896326031,10.077980494881233,10.701491132954686,14.817801551322983,1.047095770194428,11.376315981398532,12.066171911854006,13.692544005511111,0,0,0,0,0,0,0,0,0,0,0,0,0,0,0,0,
289,14.200236777829918,9.201895274134447,12.86942874386018,3.1619884652567762,2.995067262172462,6.539911779339253,-3.8427491962959657,1.4684390711162791,3.0028068657163853,8.86163163298874,16.485377195453598,12.566368988333975,0.8394429884235013,9.59352349453286,9.349600519786685,9.571105476511303,0,0,0,0,0,0,0,0,0,0,0,0,0,0,0,0,
290,9.447743325220273,4.436244035340394,10.639054259127636,0.002651135561862361,-0.5111107738451182,4.133143997016795,8.962157316438407,-7.238471077064432,6.228013649807055,3.7238875346747626,24.782837534374558,7.397583845752086,6.456136844769265,4.299533043909404,9.488186925457528,5.973768787475237,0,0,0,0,0,0,0,0,0,0,0,0,0,0,0,0,
291,20.926789883487626,19.989934583763286,24.124104164710133,16.70347128423014,13.945935331378045,15.665270671450212,27.72331960446433,6.754830866511387,11.465211029213508,7.16351217904122,31.187681938013153,10.496972454110933,13.16740583321645,8.464569989272032,13.711647341624435,7.522304751963725,0,0,0,0,0,0,0,0,0,0,0,0,0,0,0,0,
292,17.47557423564956,17.496027102823277,21.029488537144008,12.02285928465514,11.41615386361568,7.239710021029129,13.41816565106723,6.0858785092832655,12.778924052489383,9.137046170791123,23.93180828150954,10.483858003662037,13.006310332559767,8.980719747953907,7.393024801032674,5.96156412263425,0,0,0,0,0,0,0,0,0,0,0,0,0,0,0,0,
293,4.786200830208834,1.566420147602237,6.0234227134768865,-2.795186995205597,-3.640443179928816,-8.333991799093631,-14.49609545607423,-2.351391610946237,10.65315001282013,7.336132594919324,16.99686869490748,7.786690644967802,10.580151344025204,4.899701890554587,-0.3830470178188712,2.851041154443429,0,0,0,0,0,0,0,0,0,0,0,0,0,0,0,0,
294,4.773941589044437,-0.7652391666166416,3.8946371321072633,-0.1738572497899611,-7.2094574380937395,-8.584340115907867,0.5611493991205592,-5.418130770974155,-4.808090241196371,-5.905587170284701,7.472715157638774,-4.248730209051267,-4.970626363594345,-8.206246072848671,-11.488997424244808,-10.269636950487108,0,0,0,0,0,0,0,0,0,0,0,0,0,0,0,0,
295,3.726016578615763,2.6972520459991998,7.587812181387928,2.6997558784045133,-4.485960226227789,-5.070982850806718,5.150905902913063,-3.8628165196664526,-5.382095567706383,-3.3862214592929405,5.783828528005522,-2.7320583297498295,-8.326566847790986,-5.947380039238258,-0.5484492654822972,-8.395050767346891,0,0,0,0,0,0,0,0,0,0,0,0,0,0,0,0,
296,-16.282486667530684,-12.981871534527961,-9.671683362063174,-17.586101133454843,-19.512351765113998,-19.924748077799975,-19.56937071818203,-18.05527400525109,-2.425804875995752,0.7092185130720239,2.476754214972658,-1.4861740949345617,-9.781613666976995,-3.8408821463199914,1.7823509581197001,-5.049721855447345,0,0,0,0,0,0,0,0,0,0,0,0,0,0,0,0,
297,-33.81302088588311,-32.96870807472704,-29.630099346199792,-36.800027741844104,-36.43373069702844,-38.19266532395303,-20.41848183498267,-39.606928573912285,-23.15138704651728,-21.815195447736162,-17.331493574995044,-25.888490189495748,-30.815343926252897,-27.644652474479653,-37.753125534961114,-28.093951328592965,0,0,0,0,0,0,0,0,0,0,0,0,0,0,0,0,
298,-30.256559138363986,-32.19492749625295,-24.445513627965234,-34.6241135665863,-32.20785838608591,-36.981399487614325,-37.91823999462756,-38.60365182089972,-30.149816411180943,-30.180728719875894,-26.230419808161265,-38.07845342199021,-36.6266733244901,-37.72117887742418,-55.41819503136605,-39.86091214425571,0,0,0,0,0,0,0,0,0,0,0,0,0,0,0,0,
299,-22.221159411595448,-25.158049822892774,-17.338700212340537,-28.738472496858808,-27.163553296572992,-32.50788690891481,-56.97706647785921,-33.61836329963932,-22.007192539402386,-24.820455116285686,-18.666376788807625,-35.598081793990595,-29.00337931379959,-32.423228630710355,-40.476137576792155,-33.68291233622237,0,0,0,0,0,0,0,0,0,0,0,0,0,0,0,0,
300,-8.02448719157994,-10.200952253800157,-6.300361429350872,-11.569902173715171,-15.737235103485958,-19.599425503074414,-10.057390162343555,-19.138572134953343,-11.858892996622892,-17.967663321000522,-4.1761103933850094,-22.16974737853574,-12.996436313328541,-19.663541735937564,-17.2770080849781,-21.711709405616702,0,0,0,0,0,0,0,0,0,0,0,0,0,0,0,0,
301,-3.0985764881925,-0.7753544921408544,2.7474105953939105,0.045540537565806005,-7.677555138275862,-8.584142170103235,15.91792019118414,-4.668642610777651,-0.13465062647446047,-2.2332767055413676,5.527644879336968,1.4274431035532515,5.0035499646960595,0.5187667674819458,6.772306546447844,-3.549074548448406,0,0,0,0,0,0,0,0,0,0,0,0,0,0,0,0,
302,-12.87549306495444,-11.10910349127287,-4.255951086629313,-12.313197658321842,-16.369387011906802,-17.858030665287504,-12.786806741495957,-13.929911005083065,-5.853849285962788,-4.722258132484466,-2.063942443463379,-3.7631031465823597,-3.1418105718128437,-4.394066766576213,3.6919575635787254,-3.3311639321818483,0,0,0,0,0,0,0,0,0,0,0,0,0,0,0,0,
303,0.46220928715499454,-4.4137600893088305,6.866523850682544,-6.226632658735721,-3.7578450620184505,-10.430306060743183,-6.515230528184425,-10.301407765985186,-8.404763143387832,-12.020161263495535,5.433995373879526,-13.674417705077339,-7.7770661878274865,-13.952404854144227,-6.467355015409723,-10.35335977232221,0,0,0,0,0,0,0,0,0,0,0,0,0,0,0,0,
304,18.358297722803513,12.273753093891676,23.35933778668434,11.546493271206929,14.871880187998782,9.024451313354552,11.857763452085504,3.5074970404860792,3.915604774830051,-1.701471347598062,27.780223315252783,-2.1777391844529745,5.203335727966262,-4.228401179398443,-2.642950433346286,-4.011302425550291,0,0,0,0,0,0,0,0,0,0,0,0,0,0,0,0,
305,15.491817622967556,9.079318685679059,17.481765371057293,9.489969718331416,9.47897656459116,9.740857293563463,5.017072421418074,3.49896064978401,9.98749562263934,7.191893444186139,25.019782748791513,1.1814360249891962,9.620877785648922,2.0633735913793387,2.2128181488333993,1.8673481381713657,0,0,0,0,0,0,0,0,0,0,0,0,0,0,0,0,
306,6.101712094610939,-1.392972173152458,7.544830593533224,2.365492301613571,-1.2379251872851782,3.1535753600392944,19.64645498096009,-0.39486787732363027,5.765843474961439,6.593113055199048,11.815962759354615,-2.352309371096542,5.945979571130618,0.502390797503935,8.91258430035996,4.024565725599526,0,0,0,0,0,0,0,0,0,0,0,0,0,0,0,0,
307,-5.649404647345751,-6.782954743390455,1.2983010249745703,-2.866627950260476,-7.68978695174734,-2.06721242120879,15.125145780840324,-5.543630494944974,-1.9458098819399563,2.99964030416513,9.883876459088171,-1.1642185718950202,1.5385945825357226,-0.37227295987515774,6.421363094440945,6.162543420500004,0,0,0,0,0,0,0,0,0,0,0,0,0,0,0,0,
308,-4.1746043648168545,-2.5032813606398037,2.495447028517045,-1.9313061168979395,-5.8429103287479975,-1.9961458305811952,-29.88301355255041,-3.7621479857092908,-9.157331959245568,-4.581938484819613,-2.2785105012371822,-6.273715898965435,-8.53513173139026,-6.173816269136982,-14.783067240669306,-6.8813401541774315,0,0,0,0,0,0,0,0,0,0,0,0,0,0,0,0,
309,14.315253815989173,11.38875260527129,14.159837092409298,9.313087912278952,3.026371591901743,6.436500476491979,-8.837168454542478,11.821480289710692,-6.272060258227638,-1.5532944950403724,-7.303498694448159,-0.014976505000898754,-7.901360979033662,-1.9458284232726477,-16.255220747676873,-10.746853460324136,0,0,0,0,0,0,0,0,0,0,0,0,0,0,0,0,
310,17.519647525905683,14.1480276785908,17.70507257195834,12.651217638199409,3.543468808245322,9.003645522246646,29.24252103163218,20.50601398718387,6.344433608051115,16.571220146595802,18.388382003703114,22.213104214695264,12.06926388101515,18.03106080985711,12.470008822702589,17.14317642052346,0,0,0,0,0,0,0,0,0,0,0,0,0,0,0,0,
311,8.217166191007308,6.84031071174978,15.520694704989406,10.332819588018808,2.162683512509979,5.997768452006028,0.9775036516119044,13.480151540001067,5.372519162409327,15.244642348916413,21.634455932834847,17.817756525446782,13.896325713501628,15.051663871542468,18.491788528207728,22.727045934041485,0,0,0,0,0,0,0,0,0,0,0,0,0,0,0,0,
312,17.512132052224647,17.652002081042564,27.98054886127627,20.532588723374968,15.848702631764503,16.097181310505068,6.551445055964223,16.842567812055446,7.401952300652644,11.0704991704803,10.757787185193736,8.652043539316518,9.855148438939763,8.037743935981602,13.633199154592903,11.159535989978702,0,0,0,0,0,0,0,0,0,0,0,0,0,0,0,0,
313,28.178966008362785,26.75691993444153,35.015530500262564,25.431461343391575,24.552056235996925,22.79799011436099,35.58573136843084,25.989939478394223,22.97645674232593,26.709945375642462,28.178080308334682,24.72280928055943,23.75914450971896,24.110385262486545,26.127559572117818,19.927792085731735,0,0,0,0,0,0,0,0,0,0,0,0,0,0,0,0,
314,18.767127315738556,12.446375808124916,22.013674761549634,12.067308038510863,13.279351236614119,11.277612309529147,24.91986969126396,13.518914440120803,15.90349538845708,21.91876907047938,24.280379217506614,19.26055711963312,18.69943272644469,18.827839922791018,15.900525276511079,14.819298604284231,0,0,0,0,0,0,0,0,0,0,0,0,0,0,0,0,
315,8.834990228489872,4.093468530414274,12.848409279837163,3.0320558798292865,5.784195688367955,5.7660626540934246,11.625012768174987,0.6021148036834987,4.950090072289962,8.026258105820673,4.318637060593009,1.4638314679584,5.883213916015153,2.6785167597083603,3.5828433862977764,5.277574099480882,0,0,0,0,0,0,0,0,0,0,0,0,0,0,0,0,
316,3.0302900316219272,1.2264514571961698,6.339897291570143,-0.0730782648757966,2.638696221189612,4.9500613655519,-14.207971142711607,-0.6025839704122689,7.340030854758396,7.825709523353565,2.9707713641715383,1.8416462633780366,5.400831602560848,2.314849331347599,8.159117337673965,4.817864138328494,0,0,0,0,0,0,0,0,0,0,0,0,0,0,0,0,
317,-5.026672215741279,-8.725700532739374,-2.8476094679969677,-5.740566496672294,-4.793461015117277,-1.7879500242333037,-28.14012712292631,-7.384900037659634,-1.526001823462952,-0.283153221749167,-6.173159321679975,-4.538850128267853,-3.3537752597793116,-5.341617233984895,-8.102837688482495,-7.87011526854824,0,0,0,0,0,0,0,0,0,0,0,0,0,0,0,0,
318,-10.176679061867361,-12.27769958944048,-4.22422668170282,-9.360617700794787,-6.585116770367836,-7.292517564488605,-7.323099029347276,-8.555661155182662,-10.00890487003528,-7.314195616285058,-14.133719192522406,-12.370482805115262,-9.272028633272885,-11.268928638522368,-19.952083919307398,-10.372786315048103,0,0,0,0,0,0,0,0,0,0,0,0,0,0,0,0,
319,-17.703599387513407,-19.596443999013456,-12.580447416960837,-21.298534301525976,-14.34592807117192,-19.092878991922035,-9.495670982350905,-13.356053317308954,-7.180506030143068,-3.46009133017445,-8.771691418791843,-3.7477556841780633,-1.4496378344068752,-2.6663020388152283,-8.421061435415986,0.8245357486773663,0,0,0,0,0,0,0,0,0,0,0,0,0,0,0,0,
320,-18.80254412299919,-24.801681055995232,-17.259199907969844,-27.638384552053495,-21.253353887093596,-24.70654200972131,-11.979773927701366,-26.894728749027895,-11.13857852666462,-9.985438015550947,-15.014497801827186,-4.284866248826557,-2.9358724333126816,-5.351389209953396,-7.270254780924578,-6.444479925025814,0,0,0,0,0,0,0,0,0,0,0,0,0,0,0,0,
321,-4.698903696496932,-10.922531336112714,1.8782047840133478,-10.82391366487626,-6.740766107643881,-12.438143049810515,4.863760579494595,-21.288439791940974,-14.300595253015707,-17.4286505226165,-22.34076067832007,-16.856389594603968,-9.796705270588838,-16.305866781316205,-11.448970040127328,-17.903111260644096,0,0,0,0,0,0,0,0,0,0,0,0,0,0,0,0,
322,-10.344844642767134,-15.214320470063779,-0.489997354595455,-16.044620296038815,-8.324463596774214,-18.78625903992736,-19.103813958175436,-25.3021735711756,-4.978680456105849,-9.940722750104591,-16.882692148276586,-14.698005756817366,-3.5619954986850324,-12.520636792578344,-0.3203224432626115,-9.310151110486686,0,0,0,0,0,0,0,0,0,0,0,0,0,0,0,0,
323,-15.522713113367297,-18.419391932326338,-6.673977139277844,-23.63344628360781,-12.139311602124165,-21.805786167591396,-24.406716071071784,-20.394128358584908,-0.6827230572812795,-5.31941971106291,-9.650355140971193,-6.246742483883288,2.857766392349472,-5.928445846897429,6.724099119578227,-2.9563346384416604,0,0,0,0,0,0,0,0,0,0,0,0,0,0,0,0,
324,7.916913433451912,7.183758045225291,16.865218488338925,4.277873255697867,11.679608690013332,3.9152848786160246,11.920948736376102,15.294852096812804,6.7074991041050325,7.326230218785106,9.641202772152454,6.208474709726509,14.04440467383743,5.746648819030646,4.47944794947103,1.0015917447091596,0,0,0,0,0,0,0,0,0,0,0,0,0,0,0,0,
325,2.455232977037074,1.6156111523473786,7.963648179475388,3.6024372180050115,4.363221308922247,-0.5048856391820067,1.2747711170987124,7.055016610436933,13.492436190757495,18.068416911345032,12.230464168133935,11.533834823934718,19.88921890778044,13.77311071646298,4.93091177790501,8.617742009038139,0,0,0,0,0,0,0,0,0,0,0,0,0,0,0,0,
326,-25.724513193207756,-26.220030905280186,-20.273389610816203,-22.5277530128175,-23.976257396114928,-25.46936027484664,-16.464378872225197,-23.832772048735734,-4.217410132077813,-3.135034651947393,-19.320748559098092,-9.704790971770002,-1.4413740638311694,-5.010812860565707,-4.793008271951923,-3.880435586535878,0,0,0,0,0,0,0,0,0,0,0,0,0,0,0,0,
327,-21.749793082749054,-20.33313253896152,-10.672250432785635,-18.635858344571687,-16.552553277948633,-19.84144390568078,-8.422102315570584,-16.644187657429963,-14.568324916681437,-15.908735290499429,-25.73379010930136,-17.060789125130928,-11.555939172435487,-15.42388278779623,-16.859164664575232,-16.629557418615608,0,0,0,0,0,0,0,0,0,0,0,0,0,0,0,0,
328,-15.43564762760866,-13.023047304636734,-5.6898049091828415,-18.980071017341658,-12.441057091397143,-17.798892815996744,-8.986757610895813,-14.529169628927896,-8.966414112530465,-9.820070154586492,-15.621235026375306,-7.6918318773043985,-6.588996578858151,-9.176713850720162,-14.255890737235905,-12.233207442468157,0,0,0,0,0,0,0,0,0,0,0,0,0,0,0,0,
329,-22.215264569162834,-24.6497814444879,-17.517770978009537,-31.947331730014845,-23.486883428681352,-30.61717841767159,-13.802836416214152,-27.711505699079968,-16.1512254381125,-15.975618051009398,-25.44136499879187,-16.586153698548014,-14.841675534608251,-15.232705293521754,-11.01249169231713,-14.657778960292838,0,0,0,0,0,0,0,0,0,0,0,0,0,0,0,0,
330,-7.699419578807177,-14.212308067419329,2.3121930745457,-14.211184670814792,-1.8645723458395054,-19.438155905809083,-12.650013738617467,-13.957634357711346,-15.111764536390659,-16.68959344385012,-19.515326665066404,-18.963151946791392,-11.750090306464639,-16.030141308650233,-6.727277911632896,-14.59056587046069,0,0,0,0,0,0,0,0,0,0,0,0,0,0,0,0,
331,14.101831332966462,9.330329278958324,32.15057673492662,13.526267269852745,26.653353813222772,1.0376711257171536,18.988792347044708,13.555873364760476,10.56073951678312,2.5803013547302758,10.16305386117404,2.9661000683670817,12.773998478024339,4.412097741099254,12.31973103868396,7.063655892264306,0,0,0,0,0,0,0,0,0,0,0,0,0,0,0,0,
332,11.863774172211595,8.35480357966878,25.998479448533356,15.19594956203208,19.47375678993474,3.3032773537952664,38.324934220841165,18.84899970648108,29.51024520917653,22.987350330400428,30.021326944047843,24.680355125203338,34.552509788557344,27.01963941604912,34.71812971748774,30.96584363424175,0,0,0,0,0,0,0,0,0,0,0,0,0,0,0,0,
333,-10.509965362787106,-8.473467131434411,-5.002744472593662,1.5504718109131765,-2.168406912324059,-5.774836508523681,3.2212344919479676,8.189898866839709,12.04784642846766,15.296724083033627,13.701296485775387,15.917397255731702,25.078097135616673,19.627597455694925,28.13829223521593,19.47437474460898,0,0,0,0,0,0,0,0,0,0,0,0,0,0,0,0,
334,-30.207968896259104,-20.629926806449724,-26.297696487583202,-8.008324345873167,-15.74899082429781,-15.023791452354345,-23.764635396111753,0.6484839934000313,-11.715935059569151,-3.487159091986813,-16.923373421317333,-4.8881944337246654,-1.1519467381565782,-1.2340131316690437,3.9163417767955035,-6.60613098549148,0,0,0,0,0,0,0,0,0,0,0,0,0,0,0,0,
335,-30.878444918949334,-20.74528422205625,-27.29696192231841,-5.275571369791717,-18.9375944082125,-14.460480999668064,-13.255640791682499,-2.4383094715608493,-12.549955224129317,-1.6891070071785972,-21.77538085038542,-5.317887713904877,-6.3190765927455566,-0.4748524862296917,-0.9330110879372602,-4.1787942174749615,0,0,0,0,0,0,0,0,0,0,0,0,0,0,0,0,
336,-14.96619589725626,-7.098101871344223,-20.663305879360763,9.095930269100286,-7.718033157934112,-0.5825828614704918,3.1852732738578453,2.860634032107683,-10.371109702211882,5.305294443102342,-14.880533330949001,-0.07023258294274015,-0.5971087543976576,7.459118245520953,3.3530041661594576,4.521583704273974,0,0,0,0,0,0,0,0,0,0,0,0,0,0,0,0,
337,-6.846961934081136,-0.07249894962004788,-22.19072477114924,16.048358563480363,-0.790162416865094,6.467622185707189,-11.227259184808382,9.004697416563992,-9.557472143610191,6.7317272419625915,-15.069433372315117,0.2956601109239232,1.9169011856097633,10.0017771303511,-0.2046495952573828,2.744349952718159,0,0,0,0,0,0,0,0,0,0,0,0,0,0,0,0,
338,-14.631547959501319,-6.287472976087059,-31.924974973647753,11.718627805509932,-8.581823110561853,1.6415955420501227,-29.645837091047376,11.185507275198518,-1.2331984896381432,12.37959763452475,-10.35989287593445,4.432465420532511,8.995059806732915,16.06366965575898,5.892318412728214,9.792474018328644,0,0,0,0,0,0,0,0,0,0,0,0,0,0,0,0,
339,-24.202210009530436,-11.51918219919391,-44.12824521242122,7.746336667583538,-17.483238818869403,-0.5439887983134,-28.10508556218337,8.036047889846717,-5.915761791378975,9.339285994778711,-15.843526207070216,-2.7390263234879297,1.1662724187886813,11.452666131628812,7.467947532196721,6.812669588704395,0,0,0,0,0,0,0,0,0,0,0,0,0,0,0,0,
340,-28.62968549978918,-12.23742042204153,-51.797782460993865,8.242454328780823,-20.522149319033122,0.0953308333506726,-31.399001097633636,2.5745022709167102,-21.626212522309324,-3.4185470930240953,-30.57692701779099,-17.606912809829275,-16.473011140144326,-3.714060024641457,-14.39575888674731,-9.347628855649354,0,0,0,0,0,0,0,0,0,0,0,0,0,0,0,0,
341,-18.46545349273083,-1.7466777039041474,-43.143741644414106,21.62388245361548,-10.178739441027261,8.682333789274256,-5.339819762594541,14.56342836280179,-9.03506356516963,9.447643815077175,-15.40453828153547,-2.2823635099232114,1.1455430035754652,8.116570326344132,-10.740848820089457,4.372879544616346,0,0,0,0,0,0,0,0,0,0,0,0,0,0,0,0,
342,-14.310750230217788,2.5393204475227726,-39.50399840521406,27.08987282809864,-5.557604572434197,11.321586300192838,13.118163708200294,18.99375984219183,6.518680811972043,25.389156174367002,0.473566580050484,14.880813861575223,19.545948750379686,23.68865797632564,13.644002166767187,21.783768569948442,0,0,0,0,0,0,0,0,0,0,0,0,0,0,0,0,
343,-28.000096624241415,-6.327443540285522,-49.32725723028647,18.341844007074393,-14.168541458444356,3.800339124656439,-26.084190015159116,11.779580012062148,-2.2015136207990267,14.088727598715185,-10.007835345217902,3.1902922334729915,5.483415090129228,12.120201462745662,11.890145363859936,11.506426173320396,0,0,0,0,0,0,0,0,0,0,0,0,0,0,0,0,
344,-35.276484068021986,-11.592287258463454,-55.38840442457466,13.936313691343251,-18.7365253915468,1.1564377163146933,-40.74523986799136,11.138759840958585,0.4942632031331762,12.317237092442351,-10.053063416432543,0.480129374483095,5.926253900176821,10.598186080168933,7.867803150510003,8.449517065305244,0,0,0,0,0,0,0,0,0,0,0,0,0,0,0,0,
345,-41.27139080141619,-22.826460151170846,-64.27614936376801,2.6792872748281216,-29.62341725249848,-10.542266675497693,-26.095953390506075,-5.315035930554494,-1.4113172980378685,8.589961534017167,-8.822607041165696,-3.027581582750912,7.286110897128161,7.506612022746797,-1.6933913267371636,3.746431402028147,0,0,0,0,0,0,0,0,0,0,0,0,0,0,0,0,
346,-36.28977404693802,-21.31484108048378,-58.66787534315717,5.559009248137885,-30.639780079520918,-12.712271497900021,-17.170667508539843,-6.839621340849119,-22.297814565302644,-10.431159357319942,-26.21932474018631,-13.824826349945525,-13.958360728965573,-9.794745041181951,-21.76009141203695,-10.05744003895014,0,0,0,0,0,0,0,0,0,0,0,0,0,0,0,0,
347,-23.435728321913878,-7.8649648522318305,-43.06418782572938,19.878794013722377,-20.169974696261356,-1.9520678056288254,-10.487538595977702,7.935966646662687,-22.945129552487057,-4.520154724206002,-27.907017576393905,0.983355932921036,-16.54571498301383,-1.6359570160309005,-10.855068409880971,-1.0550522404207356,0,0,0,0,0,0,0,0,0,0,0,0,0,0,0,0,
348,-31.08260485954002,-12.885770575849099,-45.46515381163972,10.05281274822761,-23.13253056236242,-8.217378779818278,-37.16901220876184,-2.2254710521970753,-16.54468846256114,3.0087573242904,-12.011060522887021,6.568128740310385,-9.27087722417928,5.818844333276033,-1.4466802761014677,6.802051147833893,0,0,0,0,0,0,0,0,0,0,0,0,0,0,0,0,
349,-39.95416397419269,-20.944022489776163,-51.46689673436892,-3.977352109415073,-28.212104033379255,-17.64066066761049,-56.044993276775024,-15.314661633586711,-26.01129778898181,-13.043389260867794,-22.021936265758104,-11.299897132436545,-19.549202015422278,-11.93547714083656,-24.687273700261823,-10.36725632880922,0,0,0,0,0,0,0,0,0,0,0,0,0,0,0,0,
