%OpenBCI Raw EXG Data
%Number of channels = 16
%Sample Rate = 125 Hz
%Board = OpenBCI_GUI$BoardCytonSerialDaisy
Sample Index,EXG Channel 0,EXG Channel 1,EXG Channel 2,EXG Channel 3,EXG Channel 4,EXG Channel 5,EXG Channel 6,EXG Channel 7,EXG Channel 8,EXG Channel 9,EXG Channel 10,EXG Channel 11,EXG Channel 12,EXG Channel 13,EXG Channel 14,EXG Channel 15,Accel Channel 0,Accel Channel 1,Accel Channel 2,Other,Other,Other,Other,Other,Other,Other,Analog Channel 0,Analog Channel 1,Analog Channel 2,Timestamp,Other,Timestamp (Formatted),Annotations
1,0,-0,-0,0,-0,0,-0,0,0,0,-0,0,0,0,0,0,0,0,0,0,0,0,0,0,0,0,0,0,0,0,0,0,T0
2,4.917,8.632,-14.07,3.1,-11.24,-13.81,3.493,4.6,6.457,-4.675,6.223,-1.802,-2.003,-0.1314,-0.3814,0.1738,0,0,0,0,0,0,0,0,0,0,0,0,0,0,0,0,
3,-11.35,-1.099,-19.67,-5.171,-13.28,-17.46,4.429,-1.293,21.12,-2.814,28.23,-1.792,-4.419,6.674,14.42,2.82,0,0,0,0,0,0,0,0,0,0,0,0,0,0,0,0,
4,-11.42,-6.989,-23.71,-11.4,-8.123,-15.53,0.2848,4.473,26.85,-4.273,39.39,9.847,4.876,15.22,31.14,18.25,0,0,0,0,0,0,0,0,0,0,0,0,0,0,0,0,
5,-3.246,-7.427,-38.6,-17.73,-11.56,-22.48,-14.71,7.289,23.81,-7.377,36.85,16.84,9.36,13.29,33.98,26.92,0,0,0,0,0,0,0,0,0,0,0,0,0,0,0,0,
6,-9.072,-17.94,-51.05,-26.47,-16.46,-29.87,-27.58,-6.552,30.07,-7.989,42.94,13.51,-0.7827,8.432,32.57,23.22,0,0,0,0,0,0,0,0,0,0,0,0,0,0,0,0,
7,-7.534,-30.18,-52.62,-29.82,-12.7,-30.69,-32.93,-16.27,33.92,-19.24,49.41,16.34,-2.966,11.31,34.42,26.2,0,0,0,0,0,0,0,0,0,0,0,0,0,0,0,0,
8,-6.217,-37.75,-58.84,-32.89,-18.78,-38.42,-43.93,-22.7,19.47,-32.55,39.13,11.8,1.25,10.96,21.33,26.18,0,0,0,0,0,0,0,0,0,0,0,0,0,0,0,0,
9,-23.55,-44.93,-69.5,-38.06,-37.19,-48.66,-48.49,-28.7,-10.42,-28.59,11.21,-13.26,-6.314,4.959,-9.854,14.86,0,0,0,0,0,0,0,0,0,0,0,0,0,0,0,0,
10,-37.64,-47.64,-78.17,-45.48,-51,-52.04,-42.07,-26.06,-38.64,-24.54,-16.94,-37.18,-20.48,1.629,-29.96,2.315,0,0,0,0,0,0,0,0,0,0,0,0,0,0,0,0,
11,-34.94,-42.25,-84.42,-54.53,-57.22,-52.61,-44.43,-24.13,-25.53,-30,-16.23,-42.99,-28.73,-3.116,-28.93,-9.08,0,0,0,0,0,0,0,0,0,0,0,0,0,0,0,0,
12,-26.46,-32.04,-77.48,-51.85,-50.53,-42.21,-40.29,-23.06,17.44,-25.95,3.816,-29.2,-24.48,-8.229,-21.22,-12.65,0,0,0,0,0,0,0,0,0,0,0,0,0,0,0,0,
13,-13.19,-18.04,-58.08,-35.99,-27.19,-17.1,-14.58,-12.27,31,-14.42,12.82,-3.939,-13.9,-11.53,-9.698,-9.549,0,0,0,0,0,0,0,0,0,0,0,0,0,0,0,0,
14,4.401,-6.057,-42.73,-23.47,-9.802,0.0474,0.9471,0.8754,26.83,-8.358,20.8,11,-11.21,-19.66,0.5055,-8.128,0,0,0,0,0,0,0,0,0,0,0,0,0,0,0,0,
15,11.4,-1.057,-37.33,-17.97,-13.19,-2.351,2.03,9.567,33.82,-5.545,31.39,8.923,-10.41,-23.46,-0.4273,-1.169,0,0,0,0,0,0,0,0,0,0,0,0,0,0,0,0,
16,10.08,11.27,-33.11,-6.039,-13.32,0.2459,20.35,19.31,38,-3.18,22.43,4.249,-5.333,-21.19,-8.32,0.9309,0,0,0,0,0,0,0,0,0,0,0,0,0,0,0,0,
17,15.9,26.87,-23.69,9.13,2.309,20.56,40.28,27.43,42.66,-0.7032,7.267,4.216,-7.35,-30.31,-16.73,-13.61,0,0,0,0,0,0,0,0,0,0,0,0,0,0,0,0,
18,25.71,25.37,-13.73,12.26,13.35,37.52,41.09,33.42,44.15,4.788,9.885,13.13,-5.26,-34.79,-14.25,-17.92,0,0,0,0,0,0,0,0,0,0,0,0,0,0,0,0,
19,40.12,30.36,-4.085,16.03,18.56,45.32,50.25,47.91,42.22,12.03,17.18,28.58,11.81,-16.66,1.214,-9.082,0,0,0,0,0,0,0,0,0,0,0,0,0,0,0,0,
20,55.57,48.69,0.3269,22.46,26.88,48.73,60.69,54.78,59.5,14.39,14.65,30.97,17.46,-3.492,4.832,-13.71,0,0,0,0,0,0,0,0,0,0,0,0,0,0,0,0,
21,48.98,43.1,-12.5,7.129,26.03,35.02,43.84,38.25,66.5,13.48,10.76,21.4,9.261,-0.343,-1.244,-17.4,0,0,0,0,0,0,0,0,0,0,0,0,0,0,0,0,
22,30.36,32.94,-27.85,-11.44,18.37,12.21,29.91,32.19,48.34,19.66,18.67,24.84,17.78,19.84,14.86,3.22,0,0,0,0,0,0,0,0,0,0,0,0,0,0,0,0,
23,34.47,50.6,-24.52,-6.292,29.53,15.04,42.4,46.69,65.9,35.17,56.1,53.47,46.51,54.26,59.67,44.1,0,0,0,0,0,0,0,0,0,0,0,0,0,0,0,0,
24,66.97,70.41,-8.021,6.219,59.59,45.57,58.34,49.6,115.9,52.63,111.7,91.51,72.62,82.39,107.5,86.43,0,0,0,0,0,0,0,0,0,0,0,0,0,0,0,0,
25,91.53,70.58,0.0934,10.29,62.7,51.68,51.62,37.66,116.7,47.89,107.8,82.73,60.63,77.47,95.46,76.3,0,0,0,0,0,0,0,0,0,0,0,0,0,0,0,0,
26,55.99,37.63,-26.05,-6.783,15.28,6.512,11.52,11.78,60.12,5.519,20.63,6.956,3.22,27.02,3.609,-3.72,0,0,0,0,0,0,0,0,0,0,0,0,0,0,0,0,
27,-13.77,-18.78,-67.54,-39.37,-28.89,-35.1,-27.55,-21.94,14.2,-32.05,-50.62,-52.98,-39.73,-20.94,-67.42,-65.7,0,0,0,0,0,0,0,0,0,0,0,0,0,0,0,0,
28,-34.95,-37.06,-69.55,-43.74,-26.55,-33.73,-27.91,-29.45,5.335,-31.43,-54.49,-50.11,-35.27,-27.7,-61.74,-66.16,0,0,0,0,0,0,0,0,0,0,0,0,0,0,0,0,
29,-14.82,-9.959,-42.92,-21.05,-4.797,-18.74,-13.3,-19.66,15.62,-24.26,-35.63,-36.35,-25.65,-23.68,-47.92,-66.82,0,0,0,0,0,0,0,0,0,0,0,0,0,0,0,0,
30,-8.969,1.875,-40.53,-22.11,3.914,-14.45,-12.91,-23.15,37.24,-24.56,-17.14,-35.16,-29.02,-27.19,-50.07,-74.25,0,0,0,0,0,0,0,0,0,0,0,0,0,0,0,0,
31,-13.79,-8.578,-60.87,-47.48,-5.787,-23.15,-24.01,-28.61,40.84,-20.01,-12.69,-34.31,-24.45,-21.91,-41.86,-53.08,0,0,0,0,0,0,0,0,0,0,0,0,0,0,0,0,
32,-14.64,-6.851,-71.77,-59.38,-17.55,-33.81,-32.12,-27.26,7.582,-22.89,-26.5,-37.74,-14.85,-15.7,-37.29,-37.07,0,0,0,0,0,0,0,0,0,0,0,0,0,0,0,0,
33,-18.58,0.9381,-69.21,-56.5,-18.76,-31.64,-26.6,-24.36,-3.398,-31.33,-28.1,-41.26,-14.97,-23.8,-39,-44.88,0,0,0,0,0,0,0,0,0,0,0,0,0,0,0,0,
34,-25.08,-3.56,-66.57,-53.66,-21.23,-29.16,-21,-22.53,22.54,-29.76,-28.5,-41.52,-17.7,-32.21,-33.15,-42.83,0,0,0,0,0,0,0,0,0,0,0,0,0,0,0,0,
35,-25.74,-0.9334,-64.67,-45.92,-22.07,-31.1,-20.19,-24.88,13.32,-25.41,-50.02,-41.69,-10.43,-26.3,-30.33,-36.58,0,0,0,0,0,0,0,0,0,0,0,0,0,0,0,0,
36,-22.94,15.94,-65.1,-40.76,-18.76,-28.38,-13.04,-19.75,-14.37,-18.87,-58.84,-37.34,-3.306,-17.45,-32.15,-45.2,0,0,0,0,0,0,0,0,0,0,0,0,0,0,0,0,
37,-22.97,18.7,-69.98,-44.89,-22.99,-26.79,-9.12,-7.592,1.595,-8.44,-40.24,-30.47,-7.182,-17.65,-29.28,-55.37,0,0,0,0,0,0,0,0,0,0,0,0,0,0,0,0,
38,-15.27,11.31,-65.85,-37.71,-20.55,-21.9,-8.34,-7.133,22.86,-13.64,-25.16,-29.5,-13.93,-22.4,-30.9,-65.87,0,0,0,0,0,0,0,0,0,0,0,0,0,0,0,0,
39,-8.679,6.64,-62.73,-27.99,-17.48,-21.55,-3.478,-11.27,22.79,-30.62,-30.28,-40.32,-23.48,-28.07,-42.89,-77.8,0,0,0,0,0,0,0,0,0,0,0,0,0,0,0,0,
40,-28.48,-12.43,-77.16,-39.01,-37.73,-45.61,-7.039,-10.98,12.01,-35.22,-47.14,-57.77,-35.56,-32.14,-52.52,-75.88,0,0,0,0,0,0,0,0,0,0,0,0,0,0,0,0,
41,-51.63,-29.21,-87.73,-53.91,-59.6,-72.14,-13.94,-14.2,-32.85,-34.34,-57.63,-68.31,-34.4,-27.05,-53.9,-63.88,0,0,0,0,0,0,0,0,0,0,0,0,0,0,0,0,
42,-54.35,-19.16,-89.12,-58.9,-64.51,-75.87,-8.201,-9.867,-53.87,-31.47,-53.08,-68.9,-19.19,-14.05,-49.73,-52.39,0,0,0,0,0,0,0,0,0,0,0,0,0,0,0,0,
43,-50.11,-3.834,-86.92,-51.23,-55.95,-60.75,6.536,6.147,-1.927,-17.42,-46.66,-62.03,-7.587,-7.712,-42.7,-47.09,0,0,0,0,0,0,0,0,0,0,0,0,0,0,0,0,
44,-37.66,1.259,-72.42,-34,-41.96,-41.94,15.57,5.587,19.64,-18.25,-47.28,-54.01,-12.39,-16.97,-43.86,-58.01,0,0,0,0,0,0,0,0,0,0,0,0,0,0,0,0,
45,-22.89,-2.235,-67.91,-34.78,-42.99,-38.59,8.014,-8.896,-4.086,-36.05,-42.83,-50.75,-22.61,-25.95,-47.79,-65.19,0,0,0,0,0,0,0,0,0,0,0,0,0,0,0,0,
46,-21.77,-9.426,-80.41,-51.9,-48.25,-44.24,-4.768,-5.008,6.869,-31.66,-31.29,-44.36,-16.03,-19.09,-34.71,-49.82,0,0,0,0,0,0,0,0,0,0,0,0,0,0,0,0,
47,-20.72,-8.003,-86.38,-63.4,-44.02,-46.53,-13.81,-0.6766,14.75,-21.94,-22.64,-35.12,-4.852,-14.18,-20.84,-43.1,0,0,0,0,0,0,0,0,0,0,0,0,0,0,0,0,
48,-16.3,-6.79,-94.33,-76.81,-51.02,-56.97,-32.24,-22.68,13.27,-36.71,-9.098,-27.03,-9.556,-25.03,-23.95,-53.74,0,0,0,0,0,0,0,0,0,0,0,0,0,0,0,0,
49,-18.51,-15.71,-105.5,-89.53,-60.63,-68.74,-53.18,-41.57,34.3,-48.26,5.037,-15.01,-14.11,-34.03,-25.18,-53.48,0,0,0,0,0,0,0,0,0,0,0,0,0,0,0,0,
50,-16.31,-20.94,-103.9,-89.29,-53.63,-62.34,-54.87,-39.13,26.09,-46.2,0.8741,-9.196,-11.39,-31.81,-21.03,-48.66,0,0,0,0,0,0,0,0,0,0,0,0,0,0,0,0,
51,-7.252,-21.16,-93.65,-78.01,-42.08,-44.33,-41.7,-34.24,17.76,-49.95,-0.084,-12.33,-13.98,-27.05,-22.08,-50.69,0,0,0,0,0,0,0,0,0,0,0,0,0,0,0,0,
52,-5.612,-23.92,-77.05,-59.59,-35.58,-34.13,-34.08,-32.44,52.96,-56.72,17.43,-12.35,-15.84,-22.28,-21.38,-47.83,0,0,0,0,0,0,0,0,0,0,0,0,0,0,0,0,
53,-12.84,-24.5,-64.12,-48.88,-33.84,-36.61,-35.22,-29.38,63.81,-56.19,23.25,-13.57,-12.69,-15.03,-15.31,-43.02,0,0,0,0,0,0,0,0,0,0,0,0,0,0,0,0,
54,-14.36,-19.38,-64.69,-49.57,-26.33,-34.17,-27.15,-23.68,61.79,-47.8,24.09,-8.771,-10.22,-3.828,-0.7164,-37.78,0,0,0,0,0,0,0,0,0,0,0,0,0,0,0,0,
55,-1.207,-9.8,-63.54,-47.7,-14.51,-23.54,-9.381,-16.44,86.3,-38.35,47,10.21,-2.167,8.801,21.81,-24.3,0,0,0,0,0,0,0,0,0,0,0,0,0,0,0,0,
56,14.05,-0.2432,-61.01,-43.04,-21.11,-22.36,1.423,-9.098,84.79,-31.27,60.79,20.52,11.99,13.97,31.88,-14.92,0,0,0,0,0,0,0,0,0,0,0,0,0,0,0,0,
57,21.17,4.934,-64.05,-34.15,-31.5,-21.49,9.744,3.007,68.32,-22.05,46.47,18.09,22.46,12.96,25.91,-15.33,0,0,0,0,0,0,0,0,0,0,0,0,0,0,0,0,
58,27.17,11.58,-60.32,-22.02,-23.54,-11.22,18.94,14.11,73.81,-15.86,35.4,13.97,30.07,17.55,16.92,-11.99,0,0,0,0,0,0,0,0,0,0,0,0,0,0,0,0,
59,26.85,23.32,-51.9,-18,-19.58,-12.18,19.03,17.32,62.39,-15.34,24.85,-0.5431,33.83,20.49,-0.7355,-12.21,0,0,0,0,0,0,0,0,0,0,0,0,0,0,0,0,
60,12.58,29.48,-48.84,-16.84,-25.06,-23.48,16.9,18.31,40.3,-13.25,3.369,-14.67,28.22,10.73,-20.11,-25.48,0,0,0,0,0,0,0,0,0,0,0,0,0,0,0,0,
61,4.722,25.66,-45.95,-14.7,-24.09,-26,19.43,14.27,46.45,-15.43,0.7298,-13.52,22.32,3.92,-20.67,-32.74,0,0,0,0,0,0,0,0,0,0,0,0,0,0,0,0,
62,10.59,22.88,-40.79,-18.42,-25.73,-27.29,19.52,6.925,58.75,-24.45,9.434,-13.99,23.11,5.9,-14.16,-28.21,0,0,0,0,0,0,0,0,0,0,0,0,0,0,0,0,
63,8.221,25.58,-38.34,-21.62,-29.74,-29.96,18.94,6.33,62.41,-27.22,2.144,-16.81,25.7,3.288,-11.58,-27.04,0,0,0,0,0,0,0,0,0,0,0,0,0,0,0,0,
64,3.596,29.66,-34.18,-18.23,-20.2,-18.37,22.51,8.195,67.21,-23.01,5.93,-9.197,30.47,4.012,-2.805,-29.07,0,0,0,0,0,0,0,0,0,0,0,0,0,0,0,0,
65,12.35,32.42,-24.58,-18.18,-8.074,-5.525,23.65,6.119,59.98,-24.21,22.4,-6.38,35.29,13.47,1.97,-31.65,0,0,0,0,0,0,0,0,0,0,0,0,0,0,0,0,
66,16.15,31.83,-25.8,-30.97,-10.41,-11.17,21.58,-0.1104,46.71,-31.31,18.8,-12.85,35.56,16.35,-1.609,-32.17,0,0,0,0,0,0,0,0,0,0,0,0,0,0,0,0,
67,9.107,33.46,-37.83,-42.47,-16.86,-18.23,22.26,-1.615,52.17,-35.58,15.6,-13.61,35.74,12.63,3.058,-20.58,0,0,0,0,0,0,0,0,0,0,0,0,0,0,0,0,
68,4.477,37.6,-35.72,-37.56,-14.74,-15.53,16.95,5.688,69.52,-40.55,28.24,-14.13,37.05,9.677,4.663,-10.14,0,0,0,0,0,0,0,0,0,0,0,0,0,0,0,0,
69,2.101,35.24,-30.53,-35.13,-9.97,-16.05,5.573,1.273,77.29,-47.78,28.47,-15.72,39.46,7.138,-6.484,-16.61,0,0,0,0,0,0,0,0,0,0,0,0,0,0,0,0,
70,7.191,37.33,-40.94,-43.68,-10.29,-19.41,7.059,-11.39,60.19,-44.67,16.86,-5.58,43.95,6.935,-8.09,-26.64,0,0,0,0,0,0,0,0,0,0,0,0,0,0,0,0,
71,20.22,51.3,-42.99,-43.06,-12.01,-18.01,13.39,-7.056,37.51,-36.89,14.86,4.672,42.71,1.966,-3.413,-38.99,0,0,0,0,0,0,0,0,0,0,0,0,0,0,0,0,
72,24.72,57.87,-32.9,-36.74,-9.341,-14.42,11.7,-0.0079,53.91,-35.82,22.07,1.845,37.9,-9.612,-14.34,-60.51,0,0,0,0,0,0,0,0,0,0,0,0,0,0,0,0,
73,18.87,54.98,-33.76,-36.09,-6.733,-14.72,17.07,-4.893,83.19,-30.36,27.11,-0.3012,42.62,-6.42,-26.46,-66.44,0,0,0,0,0,0,0,0,0,0,0,0,0,0,0,0,
74,13.91,54.98,-39.98,-38.72,-10.68,-23.3,18.68,-8.23,74.59,-24.38,23.08,2.664,52.59,13,-22.17,-46.19,0,0,0,0,0,0,0,0,0,0,0,0,0,0,0,0,
75,10.2,51.13,-45.59,-50.33,-20.3,-38.09,-1.711,-4.971,54.53,-30.32,14.36,-2.177,55.74,22.4,-17.41,-31.28,0,0,0,0,0,0,0,0,0,0,0,0,0,0,0,0,
76,-0.7095,41.35,-55.39,-61.14,-29.71,-50.05,-13.84,2.145,49.46,-31.83,12.08,-9.411,56.77,24.21,-19.26,-30.61,0,0,0,0,0,0,0,0,0,0,0,0,0,0,0,0,
77,-8.909,39.9,-57.22,-53.78,-30.99,-50.23,-0.877,6.18,49.52,-23.69,17.96,-7.324,63.52,35.37,-13.5,-21.6,0,0,0,0,0,0,0,0,0,0,0,0,0,0,0,0,
78,0.3579,49.84,-49.81,-40.95,-29.59,-43.14,15.47,10.18,51.56,-21.89,23.38,-4.179,69.51,40.39,-3.837,-9.843,0,0,0,0,0,0,0,0,0,0,0,0,0,0,0,0,
79,8.767,62.37,-44.94,-31.85,-33.07,-36.1,30.82,24.02,48.53,-22.27,26.53,-1.582,70.99,31.37,0.0294,-12.07,0,0,0,0,0,0,0,0,0,0,0,0,0,0,0,0,
80,12.43,71.68,-41.65,-27.76,-28.99,-23.14,40.7,23.93,46.78,-22.29,27.86,2.878,70.09,25.55,1.931,-16.41,0,0,0,0,0,0,0,0,0,0,0,0,0,0,0,0,
81,24.47,69.53,-43.79,-39.8,-24.69,-15.92,33.69,7.134,49.02,-32.98,20.73,-6.352,64.12,23.17,-0.4327,-14.38,0,0,0,0,0,0,0,0,0,0,0,0,0,0,0,0,
82,20.11,58.53,-52.53,-46.73,-40.68,-29.22,32.79,15.13,35.28,-41.05,15.41,-19.41,61.8,22.47,-6.63,-14.13,0,0,0,0,0,0,0,0,0,0,0,0,0,0,0,0,
83,2.806,57.47,-55.69,-29.25,-55.83,-40.51,47.18,34.44,25.24,-33.06,22.67,-14.38,66.19,25.98,-11.97,-18.67,0,0,0,0,0,0,0,0,0,0,0,0,0,0,0,0,
84,2.254,58.52,-54.47,-18.86,-51.36,-40.16,48.92,32.38,43.82,-26.02,26.69,-10.36,60.31,21.96,-19.61,-25.08,0,0,0,0,0,0,0,0,0,0,0,0,0,0,0,0,
85,-1.484,45.59,-48.8,-19.23,-44.82,-43.84,42.43,33.52,56.05,-29.58,20.68,-17.73,47.14,13.33,-28.59,-31.28,0,0,0,0,0,0,0,0,0,0,0,0,0,0,0,0,
86,-14.1,33.94,-42.27,-11.84,-48.66,-51.9,38.96,37.2,42.08,-38.16,6.803,-26.49,32.46,4.905,-45.52,-45.29,0,0,0,0,0,0,0,0,0,0,0,0,0,0,0,0,
87,-19.32,25.2,-55.71,-19.12,-56.88,-62.68,24.46,20.86,36.78,-45.6,-7.203,-40.89,12,-10.58,-66.72,-64.63,0,0,0,0,0,0,0,0,0,0,0,0,0,0,0,0,
88,-25.14,16.02,-70.88,-35.3,-54.83,-70.32,11.64,9.862,43.45,-43.93,0.4616,-49.56,6.583,-15.86,-64.64,-64.88,0,0,0,0,0,0,0,0,0,0,0,0,0,0,0,0,
89,-25.64,20.14,-68.78,-39.84,-46.94,-70.38,5.498,7.95,32.42,-42.46,7.377,-49.06,13.56,-8,-54.96,-54.96,0,0,0,0,0,0,0,0,0,0,0,0,0,0,0,0,
90,-24.17,20.74,-75.6,-54.42,-49.14,-71.87,-8.271,-2.562,25.45,-45.85,-13.76,-57.47,5.638,-13.29,-65.77,-61.22,0,0,0,0,0,0,0,0,0,0,0,0,0,0,0,0,
91,-30.61,14.55,-72,-59.62,-46.67,-65.5,-4.2,4.613,29.91,-37.88,-29.63,-65.61,-0.4478,-23.93,-74.92,-69.58,0,0,0,0,0,0,0,0,0,0,0,0,0,0,0,0,
92,-25.82,25.94,-42.44,-32.77,-34.29,-50.72,17.5,27.58,7.885,-32.56,-33.02,-68.36,3.171,-25.51,-77.71,-72.29,0,0,0,0,0,0,0,0,0,0,0,0,0,0,0,0,
93,-20.15,32.89,-41.34,-23.34,-29.4,-45.97,18.45,31.82,2.172,-42.48,-33.1,-66.95,-1.103,-27.26,-77.56,-74.73,0,0,0,0,0,0,0,0,0,0,0,0,0,0,0,0,
94,-22.43,26.13,-57.63,-38.63,-24.96,-39.7,11.98,27.01,41.58,-42.7,-3.938,-43.38,2.497,-25.71,-52.59,-61.61,0,0,0,0,0,0,0,0,0,0,0,0,0,0,0,0,
95,-4.279,32.08,-45.84,-40.75,-18.22,-28.7,14.06,20.65,51.27,-41.5,23.97,-21.01,14.4,-23.47,-30.62,-45.42,0,0,0,0,0,0,0,0,0,0,0,0,0,0,0,0,
96,12.93,33.36,-40.28,-38.19,-20.38,-30.65,10.43,7.636,38.81,-56.98,10.15,-26.78,14.19,-29.6,-40.01,-44.51,0,0,0,0,0,0,0,0,0,0,0,0,0,0,0,0,
97,2.621,22.76,-51.29,-38.63,-27.53,-33.48,12.17,6.008,50.94,-61.36,-0.7337,-29.83,18.34,-27.05,-43.79,-37.83,0,0,0,0,0,0,0,0,0,0,0,0,0,0,0,0,
98,0.421,27.77,-50.47,-38.23,-34.66,-29.32,20.1,8.89,43.11,-48.56,7.909,-26.53,28.84,-14.88,-38.14,-32.15,0,0,0,0,0,0,0,0,0,0,0,0,0,0,0,0,
99,9.79,34.48,-51.53,-46.05,-36.33,-33.58,12.86,2.959,21.8,-44.7,-0.9912,-40.82,19.79,-17.62,-50.79,-48.67,0,0,0,0,0,0,0,0,0,0,0,0,0,0,0,0,
100,-0.7792,23.81,-60.24,-53.75,-32.52,-43.5,-3.657,1.666,33.41,-50.51,-9.492,-52.3,3.032,-29.72,-60.82,-61.2,0,0,0,0,0,0,0,0,0,0,0,0,0,0,0,0,
101,-16.29,11.28,-67.44,-61.32,-35.29,-51.41,-18.35,-6.009,43.42,-59.41,2.246,-50.78,-3.368,-35.86,-56.01,-58.58,0,0,0,0,0,0,0,0,0,0,0,0,0,0,0,0,
102,-20.92,2.441,-77.25,-75.83,-42.88,-62.85,-32.47,-24.67,26.74,-72.04,1.208,-56.35,-8.228,-41.51,-55.65,-57.59,0,0,0,0,0,0,0,0,0,0,0,0,0,0,0,0,
103,-27.23,-2.388,-73.76,-70.43,-40.49,-67.08,-36.98,-21.41,20.63,-73.41,-3.161,-56.18,-5.096,-39.82,-51.52,-49.99,0,0,0,0,0,0,0,0,0,0,0,0,0,0,0,0,
104,-23.73,3.54,-52.86,-42.51,-23.2,-52.37,-30.77,-1.79,39,-61.1,14.93,-41.82,3.025,-33.6,-44.48,-44.68,0,0,0,0,0,0,0,0,0,0,0,0,0,0,0,0,
105,-11.11,2.987,-47.77,-35.67,-13.28,-46.86,-32.54,-2.844,40.07,-64.11,14.98,-44.52,-9.425,-48,-57.29,-60.24,0,0,0,0,0,0,0,0,0,0,0,0,0,0,0,0,
106,-15.75,-11.46,-57.47,-48.58,-21.6,-55.57,-35.26,-13.46,19.5,-78.79,-7.206,-58.16,-20.98,-63.12,-69.57,-66.38,0,0,0,0,0,0,0,0,0,0,0,0,0,0,0,0,
107,-20.54,-8.842,-47,-42.19,-17.66,-41.58,-15.64,-1.18,25.28,-71.28,-10.23,-56,-8.82,-54.09,-66.58,-56.86,0,0,0,0,0,0,0,0,0,0,0,0,0,0,0,0,
108,-18.71,6.318,-29.42,-29.49,-10.61,-28.96,1.593,19.72,33.9,-60.03,-14.17,-61.28,-7.292,-52.84,-76.63,-65.77,0,0,0,0,0,0,0,0,0,0,0,0,0,0,0,0,
109,-33.7,1.971,-30.99,-35.29,-22.72,-41.99,-7.559,18.19,16.82,-69.76,-22.5,-73.82,-15.24,-61.72,-86.67,-73.34,0,0,0,0,0,0,0,0,0,0,0,0,0,0,0,0,
110,-36.46,-4.183,-28.22,-38.42,-15.01,-33.34,-14.96,1.723,22.46,-74.69,-10.51,-65.59,-7.73,-53.9,-74.96,-62.23,0,0,0,0,0,0,0,0,0,0,0,0,0,0,0,0,
111,-24.89,-2.761,-20.36,-35.91,-1.474,-19.96,-13.83,-8.732,32.34,-68.84,-13.03,-63.32,-9.987,-49.05,-73.13,-65.9,0,0,0,0,0,0,0,0,0,0,0,0,0,0,0,0,
112,-41.48,-12.12,-32.94,-43.52,-26.01,-45.33,-15.97,-8.011,5.718,-65.1,-29.92,-75.68,-18.63,-52.61,-83.74,-73.68,0,0,0,0,0,0,0,0,0,0,0,0,0,0,0,0,
113,-55.1,-10.56,-40.15,-43.84,-42.41,-61.46,-8.011,1.168,-12.09,-55.96,-29.57,-74.12,-8.407,-46.51,-81.37,-64.68,0,0,0,0,0,0,0,0,0,0,0,0,0,0,0,0,
114,-42.91,5.171,-26.78,-31.44,-29.74,-48.46,1.014,8.285,-6.907,-44.8,-35.94,-72.59,-5.383,-45.88,-77.55,-69.05,0,0,0,0,0,0,0,0,0,0,0,0,0,0,0,0,
115,-38.81,3.116,-20.44,-25.23,-22.22,-38.63,-3.903,7.395,4.078,-39.39,-38.3,-76.17,-14.68,-51.76,-79.74,-84.94,0,0,0,0,0,0,0,0,0,0,0,0,0,0,0,0,
116,-38.4,-4.115,-22.37,-29.07,-17.51,-30.7,-9.216,1.335,20.26,-43.62,-19.99,-74.07,-14.64,-48.96,-83.83,-89.53,0,0,0,0,0,0,0,0,0,0,0,0,0,0,0,0,
117,-34.79,0.0209,-22.08,-35.66,-14.99,-24.33,-12.24,-6.909,15.48,-56.58,-23.85,-80.33,-15.79,-48.3,-93.18,-93.93,0,0,0,0,0,0,0,0,0,0,0,0,0,0,0,0,
118,-31.44,0.577,-18.3,-33.56,-12.98,-20.39,-15.01,-7.955,4.442,-56.02,-30.93,-77.42,-14.06,-49.46,-89.3,-89.27,0,0,0,0,0,0,0,0,0,0,0,0,0,0,0,0,
119,-16.56,-0.2336,-13.44,-27.24,-3.477,-19.86,-14.3,-5.531,22.36,-46.37,-2.342,-58.04,0.7425,-43.95,-66.58,-67.61,0,0,0,0,0,0,0,0,0,0,0,0,0,0,0,0,
120,-17.17,4.421,-24.25,-32.09,-12.27,-44.02,-16.41,-10.52,28.19,-52.48,10.31,-63.19,2.583,-44.77,-57.87,-62.52,0,0,0,0,0,0,0,0,0,0,0,0,0,0,0,0,
121,-46.46,3.537,-44.07,-35.39,-32.33,-73.27,-17.25,-5.737,2.409,-59.96,-14.12,-80.92,-11.61,-51.71,-65.02,-74.19,0,0,0,0,0,0,0,0,0,0,0,0,0,0,0,0,
122,-60.79,-3.389,-47.97,-29.67,-26.89,-73.35,-11.86,13.32,-5.301,-56.35,-20.82,-74.78,-12.26,-48.68,-58.91,-70.69,0,0,0,0,0,0,0,0,0,0,0,0,0,0,0,0,
123,-53.64,-2.095,-47.13,-33.92,-17.13,-69.84,-14.16,17.9,1.696,-50.5,-7.886,-68.92,-3.778,-42.91,-52.59,-63.11,0,0,0,0,0,0,0,0,0,0,0,0,0,0,0,0,
124,-55.8,1.149,-59.93,-50.2,-33.82,-86.03,-31.09,3.25,-16.2,-48.45,-19.84,-80.66,-12.07,-50.77,-68.91,-71.5,0,0,0,0,0,0,0,0,0,0,0,0,0,0,0,0,
125,-66.39,-13.89,-71.79,-61.29,-54.73,-97.75,-47,-8.371,-31.34,-61.5,-42.51,-87.08,-27.94,-62.91,-80.61,-79.22,0,0,0,0,0,0,0,0,0,0,0,0,0,0,0,0,
126,-69.65,-33.69,-68.54,-59.17,-55.02,-93.49,-50.35,-10.9,-25.39,-76.81,-41.15,-80.99,-28.06,-64.87,-72.08,-75.3,0,0,0,0,0,0,0,0,0,0,0,0,0,0,0,0,
127,-60.95,-32.76,-63.97,-53.45,-45.04,-88.83,-49.11,-11.8,-36.15,-69.9,-30.1,-69.58,-18.01,-62.09,-67.93,-70.88,0,0,0,0,0,0,0,0,0,0,0,0,0,0,0,0,
128,-41.56,-16.91,-66.9,-51.51,-41.18,-84.29,-42.2,-7.878,-40.57,-55.26,-21.93,-54.2,-6.993,-55.39,-66.93,-66.49,0,0,0,0,0,0,0,0,0,0,0,0,0,0,0,0,
129,-27.77,-1.284,-69.3,-52.88,-46.61,-79.13,-28.34,0.9616,-9.714,-48.78,-14.79,-45.47,7.805,-41.14,-58.45,-56.1,0,0,0,0,0,0,0,0,0,0,0,0,0,0,0,0,
130,-33.34,7.591,-73.87,-62.23,-53.94,-84.55,-26.99,1.33,-4.723,-45.15,-19.39,-50.56,16.85,-32.87,-58.78,-47.4,0,0,0,0,0,0,0,0,0,0,0,0,0,0,0,0,
131,-39.53,12.22,-77.56,-66.04,-53.42,-87.73,-31.97,-1.509,-33.7,-42.48,-25.03,-56.99,15.15,-34.51,-69.67,-49.86,0,0,0,0,0,0,0,0,0,0,0,0,0,0,0,0,
132,-41.46,17.18,-74.58,-54.59,-55.36,-82,-25.06,3.729,-38.93,-38.32,-24.51,-62.47,15.93,-33.13,-77.62,-59.65,0,0,0,0,0,0,0,0,0,0,0,0,0,0,0,0,
133,-56.76,20.75,-73.95,-47.79,-64.23,-83.78,-15.94,9.433,-30.53,-32.16,-35.81,-71.84,21.28,-30.03,-78.89,-64.82,0,0,0,0,0,0,0,0,0,0,0,0,0,0,0,0,
134,-61.11,33.56,-59.66,-35.35,-54.06,-73.89,1.691,19.9,-32.35,-25.42,-45.27,-70.92,25.52,-28.31,-71.29,-58.84,0,0,0,0,0,0,0,0,0,0,0,0,0,0,0,0,
135,-39.83,57.86,-28.64,-8.936,-31.18,-42.79,28.35,34,-30.92,-16.09,-31.39,-56.2,34.58,-18.14,-59.66,-45.43,0,0,0,0,0,0,0,0,0,0,0,0,0,0,0,0,
136,-29.6,68.15,-23.21,-6.795,-28.59,-31.53,33.72,31.61,-22.79,-11.92,-11.27,-46.46,42.51,-8.177,-55.11,-36.28,0,0,0,0,0,0,0,0,0,0,0,0,0,0,0,0,
137,-29.88,58.68,-32.7,-20.25,-31.35,-37.19,27.26,23.58,-11,-20.59,-4.397,-46.08,28.92,-20.94,-60.07,-44.27,0,0,0,0,0,0,0,0,0,0,0,0,0,0,0,0,
138,-16.18,42.41,-14.66,-9.865,-12.83,-22.4,30.61,28.11,-6.639,-34.11,-10.14,-46.56,0.7088,-46.99,-70.31,-63.96,0,0,0,0,0,0,0,0,0,0,0,0,0,0,0,0,
139,-8.173,23.78,3.807,2.704,5.407,-9.86,24.5,35.12,-16.25,-38.69,-14.61,-49.13,-15.57,-58.68,-74.67,-72.07,0,0,0,0,0,0,0,0,0,0,0,0,0,0,0,0,
140,-15.92,17.77,-2.683,-2.34,2.84,-21.92,11.67,40.88,-5.564,-25.44,5.799,-44.67,-7.755,-46.79,-49.45,-53.71,0,0,0,0,0,0,0,0,0,0,0,0,0,0,0,0,
141,-9.849,34.72,-2.833,-3.657,5.777,-24.86,9.518,42.81,37.14,-4.758,52.79,-16.36,21.61,-15.16,5.118,-17.23,0,0,0,0,0,0,0,0,0,0,0,0,0,0,0,0,
142,4.395,50.08,-6.006,-15.46,7.541,-33.38,-15.49,21.49,46.22,-7.168,70.84,-4.312,34.46,3.961,19.18,-6.083,0,0,0,0,0,0,0,0,0,0,0,0,0,0,0,0,
143,-29.67,27.82,-61.98,-71.01,-46.01,-99.34,-84.38,-27.51,-12.4,-40.67,15.08,-58.62,-8.492,-27.41,-52.55,-54.18,0,0,0,0,0,0,0,0,0,0,0,0,0,0,0,0,
144,-107.9,-29.94,-136.2,-134,-116.9,-173,-146,-73.95,-78.86,-74.6,-58.52,-124.5,-63.03,-76.93,-129.4,-112.6,0,0,0,0,0,0,0,0,0,0,0,0,0,0,0,0,
145,-151.7,-77.27,-157.4,-151.6,-130.9,-187.8,-162.7,-84.48,-109.5,-90.64,-88.26,-139.8,-76.27,-94.11,-144.9,-124.3,0,0,0,0,0,0,0,0,0,0,0,0,0,0,0,0,
146,-147.3,-84.19,-145.5,-138.8,-121.2,-176.2,-153.5,-64.95,-107.5,-95.55,-92.55,-135.5,-72.69,-90.5,-140.1,-115.2,0,0,0,0,0,0,0,0,0,0,0,0,0,0,0,0,
147,-139.2,-67.98,-133.4,-117.8,-113,-162.4,-135.2,-45.29,-85.47,-89.17,-82.94,-129.6,-73.31,-85.92,-135.7,-114.5,0,0,0,0,0,0,0,0,0,0,0,0,0,0,0,0,
148,-131.1,-59.07,-109.9,-93.45,-87.41,-141.1,-123.1,-39.37,-82.09,-81.15,-65.2,-117.6,-71.3,-82.91,-123.5,-112.3,0,0,0,0,0,0,0,0,0,0,0,0,0,0,0,0,
149,-121.3,-62.24,-92.69,-83.75,-75.18,-131,-123.9,-40,-92.04,-84.4,-69.1,-122.6,-68.32,-84.09,-120.3,-108.3,0,0,0,0,0,0,0,0,0,0,0,0,0,0,0,0,
150,-120.5,-55.2,-90.45,-78.02,-77.78,-122.4,-107.3,-31.44,-77.28,-82.4,-75.49,-131.9,-59.62,-79.33,-118,-104,0,0,0,0,0,0,0,0,0,0,0,0,0,0,0,0,
151,-120.8,-36.55,-81.13,-61.98,-66.49,-109.7,-77.02,-15.96,-72.35,-73.16,-61.58,-129.2,-56.94,-74.39,-112.3,-99.7,0,0,0,0,0,0,0,0,0,0,0,0,0,0,0,0,
152,-121.7,-34.97,-75.19,-56.53,-64.18,-117.7,-72.45,-11.5,-87.42,-77.71,-59.04,-136.7,-74.21,-83.58,-118.3,-101,0,0,0,0,0,0,0,0,0,0,0,0,0,0,0,0,
153,-129.7,-53.32,-83.99,-63.42,-75.67,-129.3,-82.71,-14.26,-78.32,-86.88,-67.91,-138.7,-83.96,-90.5,-113.7,-97.66,0,0,0,0,0,0,0,0,0,0,0,0,0,0,0,0,
154,-126.8,-66.75,-89.38,-66.93,-71.78,-117,-83.12,-14.08,-59.21,-89.36,-49,-111,-75.41,-91.37,-90.11,-85.61,0,0,0,0,0,0,0,0,0,0,0,0,0,0,0,0,
155,-100.2,-64.57,-79.48,-61.81,-55.89,-95.59,-82.82,-16.55,-45.44,-95.55,-11.75,-84.66,-71.54,-101.1,-75.63,-80.37,0,0,0,0,0,0,0,0,0,0,0,0,0,0,0,0,
156,-78.47,-55.45,-66.38,-52.15,-47.77,-86.74,-85.15,-20.91,-32.28,-97.98,-2.066,-81.55,-70.22,-109.3,-73.29,-86.08,0,0,0,0,0,0,0,0,0,0,0,0,0,0,0,0,
157,-85.54,-44.71,-68.37,-54.07,-50.78,-91.95,-82.99,-22.22,-40.33,-87.42,-19.02,-85.06,-59.96,-106.3,-77.75,-94.03,0,0,0,0,0,0,0,0,0,0,0,0,0,0,0,0,
158,-95.77,-27.3,-75.93,-62.44,-57.5,-97.4,-79.74,-23.64,-56.05,-79.4,-29.08,-87.76,-46.82,-96.65,-87.12,-89.47,0,0,0,0,0,0,0,0,0,0,0,0,0,0,0,0,
159,-93.4,-11.58,-74.65,-62.08,-60.05,-100.6,-79.23,-23.85,-57.13,-80.74,-32.94,-86.85,-31.63,-79.17,-82.15,-62.99,0,0,0,0,0,0,0,0,0,0,0,0,0,0,0,0,
160,-91.64,-6.741,-72.81,-60.92,-57.25,-105,-73.33,-14.08,-60.27,-79.54,-36.13,-71.99,-12.78,-61.02,-63.56,-34.9,0,0,0,0,0,0,0,0,0,0,0,0,0,0,0,0,
161,-88.96,-2.71,-80.83,-64.26,-68.78,-108.6,-66.48,-0.8313,-72.44,-74.88,-30.5,-59.35,-2.396,-54.04,-54,-26.65,0,0,0,0,0,0,0,0,0,0,0,0,0,0,0,0,
162,-92.8,-4.367,-105.9,-77.18,-99.32,-119.7,-80.42,-6.867,-76.92,-78.93,-21.82,-64.63,-7.074,-54.57,-50.17,-25.69,0,0,0,0,0,0,0,0,0,0,0,0,0,0,0,0,
163,-104.6,-16.25,-116.8,-88.13,-96.35,-121.3,-96.43,-25.09,-62.56,-90.08,-7.338,-63.18,-16.98,-55.51,-40.22,-23.53,0,0,0,0,0,0,0,0,0,0,0,0,0,0,0,0,
164,-97.45,-18.58,-74.39,-65.83,-49.67,-89.64,-82.6,-28.97,-49.96,-93.6,2.795,-54.84,-30.06,-60.07,-40.27,-36.4,0,0,0,0,0,0,0,0,0,0,0,0,0,0,0,0,
165,-86.95,-16.69,-34.16,-39.03,-31.05,-67.71,-69.22,-31.12,-55.01,-93.42,-15.7,-67.6,-47.71,-71.04,-56.23,-55.65,0,0,0,0,0,0,0,0,0,0,0,0,0,0,0,0,
166,-98.77,-27.29,-44.18,-46.46,-49.62,-80.8,-78.15,-44.44,-59.66,-101.4,-33.75,-81.46,-53.05,-77.2,-58.46,-50.62,0,0,0,0,0,0,0,0,0,0,0,0,0,0,0,0,
167,-98.56,-35.85,-45.83,-48.34,-50.72,-78.61,-73.81,-43.25,-68,-103.4,-26.01,-71.79,-39.13,-69.96,-41.54,-30.81,0,0,0,0,0,0,0,0,0,0,0,0,0,0,0,0,
168,-75.14,-33.45,-21.67,-26.2,-37.66,-55.53,-51.55,-23.71,-80.54,-92,-21.38,-57.82,-25.15,-61.82,-32.97,-23.78,0,0,0,0,0,0,0,0,0,0,0,0,0,0,0,0,
169,-63.83,-28.83,-23.82,-21.13,-40.76,-54.53,-40.14,-14.03,-68.59,-89.07,-20.94,-50.59,-21.12,-61.57,-30.96,-22.08,0,0,0,0,0,0,0,0,0,0,0,0,0,0,0,0,
170,-64.25,-22.81,-46.05,-35.74,-50.16,-64.42,-36.97,-22.64,-47.07,-94.68,-6.908,-43.23,-20.25,-62.56,-25.88,-17.67,0,0,0,0,0,0,0,0,0,0,0,0,0,0,0,0,
171,-65.55,-17.64,-56.9,-48.97,-55.14,-68.21,-37.95,-36.26,-44.52,-91.32,-2.759,-40.73,-20.43,-62.21,-35.36,-23.37,0,0,0,0,0,0,0,0,0,0,0,0,0,0,0,0,
172,-80.02,-19.07,-68.84,-66.21,-69.66,-85.6,-51.63,-43.85,-53.46,-82.32,-21.63,-49.84,-19.95,-56.68,-54.95,-36.32,0,0,0,0,0,0,0,0,0,0,0,0,0,0,0,0,
173,-88.95,-16.59,-84.39,-76.87,-82.49,-96.46,-59.75,-43.91,-63.05,-72.47,-33.61,-57.46,-12.34,-44.35,-59.24,-40.18,0,0,0,0,0,0,0,0,0,0,0,0,0,0,0,0,
174,-72.82,1.602,-84.16,-66.82,-73.08,-78,-51.73,-42.42,-61.39,-65.08,-27.13,-48.42,3.082,-34.1,-47.92,-27.56,0,0,0,0,0,0,0,0,0,0,0,0,0,0,0,0,
175,-61.38,22.54,-76.6,-60.04,-63.59,-64.32,-45.64,-41.65,-48.7,-59.7,-17.71,-33.08,22.62,-21.85,-28.54,-2.175,0,0,0,0,0,0,0,0,0,0,0,0,0,0,0,0,
176,-59.84,33.59,-70.8,-60.32,-58.92,-58.28,-38.86,-33.53,-43.62,-43.66,1.925,-19.54,36.1,-8.032,-5.454,18.48,0,0,0,0,0,0,0,0,0,0,0,0,0,0,0,0,
177,-48.59,35.55,-60.08,-51.65,-44.79,-44.92,-34.12,-24.38,-42.07,-36.36,24.47,-6.178,28.96,-13.32,8.783,23.06,0,0,0,0,0,0,0,0,0,0,0,0,0,0,0,0,
178,-50.39,20.33,-63.02,-60.19,-46.78,-54.84,-54.92,-38.85,-37.8,-59.08,14.27,-5.883,11.96,-29.83,12.78,24.58,0,0,0,0,0,0,0,0,0,0,0,0,0,0,0,0,
179,-65.7,-4.82,-84.38,-89.53,-61.21,-77.65,-79.53,-64.24,-51.1,-76.58,-3.877,-10.06,6.388,-35.78,17.02,28.99,0,0,0,0,0,0,0,0,0,0,0,0,0,0,0,0,
180,-61.6,-16.18,-92.4,-98.55,-59.05,-76.5,-80.04,-64.46,-71.07,-73.99,14.23,4.645,5.296,-38.07,25.37,27.2,0,0,0,0,0,0,0,0,0,0,0,0,0,0,0,0,
181,-48.82,-17.5,-84.96,-89.78,-56.42,-69.11,-74.24,-53.19,-51.81,-75.24,40.03,23.99,4.656,-36.08,33.58,27.89,0,0,0,0,0,0,0,0,0,0,0,0,0,0,0,0,
182,-43.75,-20.08,-83.3,-88.52,-60.73,-69.99,-70.58,-53.34,-14.39,-71.78,43.45,30.51,14.44,-21.89,34.62,40.83,0,0,0,0,0,0,0,0,0,0,0,0,0,0,0,0,
183,-41.84,-20.67,-88.98,-91.76,-65.79,-73.12,-68.79,-51.33,-17,-60.23,37.2,26.89,23.71,-8.823,31.54,54.16,0,0,0,0,0,0,0,0,0,0,0,0,0,0,0,0,
184,-46.3,-23.22,-93.4,-93.54,-75.48,-75.67,-75.6,-49.49,-39.3,-61.26,30.16,17.33,20.39,-5.869,29.33,60.37,0,0,0,0,0,0,0,0,0,0,0,0,0,0,0,0,
185,-48.54,-29.94,-93.11,-92.33,-73.84,-67.58,-76.38,-55.53,-42.76,-64.82,32.16,18.92,11.44,-13.05,23.24,56.3,0,0,0,0,0,0,0,0,0,0,0,0,0,0,0,0,
186,-42.79,-31.25,-95.01,-88.49,-66.14,-62.05,-67.89,-51.55,-37.49,-61.26,41.87,30.38,3.902,-28.93,18.45,37.76,0,0,0,0,0,0,0,0,0,0,0,0,0,0,0,0,
187,-42.57,-25.28,-97.29,-85.59,-75.15,-74.24,-68.54,-44.31,-43.3,-68.36,27.37,21.86,-1.761,-42.88,14.64,20.5,0,0,0,0,0,0,0,0,0,0,0,0,0,0,0,0,
188,-49.96,-22.98,-93.34,-84.02,-87.62,-88.56,-76.84,-53.94,-66.68,-80.04,-2.492,5.893,-6.378,-47.33,0.6283,18.05,0,0,0,0,0,0,0,0,0,0,0,0,0,0,0,0,
189,-58.64,-26.65,-98.08,-86.77,-93.17,-100.1,-83.57,-61.36,-73.23,-76.43,1.423,12.27,-3.799,-40.77,-7.506,19.25,0,0,0,0,0,0,0,0,0,0,0,0,0,0,0,0,
190,-67.93,-29.64,-115.6,-96.52,-104.5,-113.8,-91.64,-56.65,-65.38,-72.37,11.78,10.89,0.8445,-33.58,-7.702,13.73,0,0,0,0,0,0,0,0,0,0,0,0,0,0,0,0,
191,-81.67,-39.52,-130.8,-107.6,-123.6,-127.8,-101.9,-60.39,-102.8,-82.83,-19.58,-18.91,-12.01,-42.38,-27.49,1.972,0,0,0,0,0,0,0,0,0,0,0,0,0,0,0,0,
192,-97.66,-55.68,-139.7,-110.1,-135.3,-141.3,-106.9,-64.65,-127.8,-90.81,-39.83,-35.34,-27.98,-53.3,-50.42,-7.985,0,0,0,0,0,0,0,0,0,0,0,0,0,0,0,0,
193,-107.3,-63.2,-142,-108,-133.6,-150.2,-107.3,-59.04,-92.09,-89.09,-29.06,-35.52,-26.11,-49.4,-55.95,-8.926,0,0,0,0,0,0,0,0,0,0,0,0,0,0,0,0,
194,-119.7,-70.31,-142,-111.7,-136,-159.8,-114.2,-61.46,-98.6,-87.18,-47.44,-55.73,-26.77,-45.2,-63.69,-7.816,0,0,0,0,0,0,0,0,0,0,0,0,0,0,0,0,
195,-134.3,-79.22,-141.8,-107.9,-140.4,-170.3,-119.3,-60.09,-132.2,-83.17,-65.82,-67.79,-32.8,-42.13,-65.08,-5.628,0,0,0,0,0,0,0,0,0,0,0,0,0,0,0,0,
196,-128.2,-75.1,-136.8,-94.77,-131.9,-166,-112.3,-44.43,-109.3,-77,-46.15,-48.87,-27.57,-32.51,-52.37,1.226,0,0,0,0,0,0,0,0,0,0,0,0,0,0,0,0,
197,-116.4,-69.33,-137.8,-94.81,-128.7,-158.7,-110.2,-48.15,-102.5,-78.11,-44.53,-45.96,-29.34,-33.97,-55.81,-1.079,0,0,0,0,0,0,0,0,0,0,0,0,0,0,0,0,
198,-123.7,-70.01,-145.7,-96.13,-135.8,-164.9,-114.6,-62.52,-130,-87.09,-58.22,-61.17,-41.93,-46.11,-64.94,-6.899,0,0,0,0,0,0,0,0,0,0,0,0,0,0,0,0,
199,-126.6,-66.22,-143.3,-87.56,-131,-166.2,-106.8,-51.33,-122.8,-89.23,-44.28,-52.47,-37.25,-42,-50.28,7.325,0,0,0,0,0,0,0,0,0,0,0,0,0,0,0,0,
200,-110.2,-58.55,-131.7,-84.56,-120.3,-152,-92.01,-37.03,-105.5,-75.87,-29.89,-34.62,-22.38,-26.98,-35.99,22.25,0,0,0,0,0,0,0,0,0,0,0,0,0,0,0,0,
201,-98.26,-47.44,-120.5,-77.45,-116.1,-135.9,-78.85,-36.26,-104.6,-66.27,-33.64,-31.98,-20.87,-27.32,-41.39,13.09,0,0,0,0,0,0,0,0,0,0,0,0,0,0,0,0,
202,-97.82,-37.41,-114.1,-65.89,-112.6,-123.5,-65.11,-30.14,-114.4,-70.12,-41.25,-29.61,-22.89,-37.63,-42.26,4.172,0,0,0,0,0,0,0,0,0,0,0,0,0,0,0,0,
203,-89.83,-35.7,-112.9,-68.36,-111.5,-113.1,-58.3,-25.7,-131.8,-67.5,-42.74,-18.26,-17.87,-39.87,-29.02,11.57,0,0,0,0,0,0,0,0,0,0,0,0,0,0,0,0,
204,-72.96,-28.99,-108.8,-70.14,-112.5,-102.8,-54.47,-25.22,-112.4,-58.12,-27.37,-3.187,-12.03,-34.69,-18.51,17.64,0,0,0,0,0,0,0,0,0,0,0,0,0,0,0,0,
205,-60.6,-14.43,-100.2,-59.45,-101.6,-87.5,-40.54,-13.44,-66.27,-54.59,-8.606,6.773,-2.881,-26.17,-13.64,19.13,0,0,0,0,0,0,0,0,0,0,0,0,0,0,0,0,
206,-48.29,-6.641,-88.46,-48.87,-85.02,-72.41,-28.78,-6.951,-66.62,-52.48,-4.07,6.339,10.01,-18.59,-7.667,23.73,0,0,0,0,0,0,0,0,0,0,0,0,0,0,0,0,
207,-31.61,1.436,-73.89,-43.36,-79.06,-63.62,-24.44,-16.23,-84.85,-49.73,-1.595,10.19,20.13,-15.74,-4.978,30.31,0,0,0,0,0,0,0,0,0,0,0,0,0,0,0,0,
208,-18.33,21.24,-62.73,-42.02,-70.16,-50.09,-12.84,-20.94,-60.24,-45.22,2.712,22.47,28.93,-11.72,-5.984,37.45,0,0,0,0,0,0,0,0,0,0,0,0,0,0,0,0,
209,-15.05,29.8,-61.59,-47.33,-60.13,-42.13,-15.77,-25.69,-44.05,-45.4,-2.256,19.89,29.19,-9.891,-4.248,38.81,0,0,0,0,0,0,0,0,0,0,0,0,0,0,0,0,
210,-28.43,6.112,-74.26,-64.08,-70.9,-61.1,-48.86,-40.89,-69.28,-59.69,-7.006,4.227,16.99,-14.23,-2.582,35.26,0,0,0,0,0,0,0,0,0,0,0,0,0,0,0,0,
211,-46.03,-18.81,-86.21,-81.21,-78.09,-79.18,-68.73,-45.85,-75.5,-65.88,3.592,-1.995,8.474,-13.77,-2.866,38.7,0,0,0,0,0,0,0,0,0,0,0,0,0,0,0,0,
212,-48.06,-21.13,-82.13,-80.38,-66.28,-73.98,-65.41,-39.29,-55.83,-61.09,16.09,-1.044,2.264,-16.05,2.097,41.72,0,0,0,0,0,0,0,0,0,0,0,0,0,0,0,0,
213,-41.72,-27.8,-80.57,-77.04,-60.65,-69.98,-71.96,-42.28,-47.48,-74.02,20.53,7.81,-7.624,-28.79,14.1,38.5,0,0,0,0,0,0,0,0,0,0,0,0,0,0,0,0,
214,-34.73,-40.7,-94.47,-88.73,-59.16,-76.02,-79.88,-51.11,-40.32,-84.77,34.18,30.67,-4.835,-29.91,26.16,44.56,0,0,0,0,0,0,0,0,0,0,0,0,0,0,0,0,
215,-28.54,-37.8,-107.5,-98.13,-58.62,-81.24,-78.54,-54.04,-35.46,-72.32,48.18,42.3,2.749,-23.57,27.05,49.58,0,0,0,0,0,0,0,0,0,0,0,0,0,0,0,0,
216,-31.06,-36.69,-106.8,-96.71,-62.16,-80.19,-83.14,-53.17,-37.36,-66.67,39.04,29.42,-8.454,-36.37,9.072,30.72,0,0,0,0,0,0,0,0,0,0,0,0,0,0,0,0,
217,-40.6,-50.92,-100.9,-100.9,-57.21,-75.21,-90.18,-54.52,-29.44,-71.26,21.71,14.44,-25.92,-52.6,-15,7.108,0,0,0,0,0,0,0,0,0,0,0,0,0,0,0,0,
218,-52.91,-61.26,-106.6,-110.4,-58.07,-76.81,-91.05,-57.53,-29.19,-68.18,8.744,6.242,-31.71,-51.81,-28.02,2.582,0,0,0,0,0,0,0,0,0,0,0,0,0,0,0,0,
219,-56.74,-60.16,-106.7,-101.8,-63.68,-75.45,-86.77,-52.63,-38.15,-66.19,-4.678,-1.854,-35.95,-50.79,-38.97,2.491,0,0,0,0,0,0,0,0,0,0,0,0,0,0,0,0,
220,-50.2,-63.04,-89.93,-82.13,-54.34,-70.53,-85.63,-47.21,-43.67,-67.24,-11.49,-11.3,-48.17,-57.12,-54.36,-5.541,0,0,0,0,0,0,0,0,0,0,0,0,0,0,0,0,
221,-60.58,-79.31,-96.37,-88.31,-58.12,-86.32,-97.93,-58.12,-66,-67.89,-10.06,-20.94,-58,-59.22,-59.14,-7.912,0,0,0,0,0,0,0,0,0,0,0,0,0,0,0,0,
222,-77.95,-94.05,-118.3,-108.7,-74.09,-103.2,-111.3,-70.13,-76.62,-73.68,-2.414,-23.81,-57.28,-59.93,-54.89,-4.224,0,0,0,0,0,0,0,0,0,0,0,0,0,0,0,0,
223,-72.03,-96.97,-109.7,-103.5,-64.71,-96.33,-110.1,-61.5,-51.23,-76.12,9.824,-15.96,-52.96,-61.35,-49.72,-6.572,0,0,0,0,0,0,0,0,0,0,0,0,0,0,0,0,
224,-62.13,-93.62,-90.65,-81.61,-52.05,-85.96,-95.62,-39.42,-44.69,-68.21,12.06,-3.701,-46.38,-52.47,-38.68,-3.672,0,0,0,0,0,0,0,0,0,0,0,0,0,0,0,0,
225,-55.84,-80.27,-81.28,-68.6,-57.37,-73.41,-74.14,-21.98,-56.99,-57.75,4.822,8.222,-34.37,-37.48,-31.23,11.16,0,0,0,0,0,0,0,0,0,0,0,0,0,0,0,0,
226,-39.04,-66.3,-66.83,-62.67,-53.51,-53.67,-62.65,-18.98,-46.27,-52.5,5.566,17.67,-26.85,-30.7,-29.35,19.43,0,0,0,0,0,0,0,0,0,0,0,0,0,0,0,0,
227,-31.28,-68.61,-57.47,-58.96,-40.51,-50.28,-68.4,-25.8,-39.25,-58.62,10.76,18.49,-28.5,-30.44,-21.72,17.88,0,0,0,0,0,0,0,0,0,0,0,0,0,0,0,0,
228,-42.98,-71.77,-64.1,-64.76,-43.97,-62.67,-75.28,-32.36,-50.21,-65.17,5.873,7.68,-27.4,-29.28,-24.29,17.46,0,0,0,0,0,0,0,0,0,0,0,0,0,0,0,0,
229,-51.77,-62.04,-73.22,-72.97,-53.56,-64.72,-72.31,-30.85,-52.94,-55.45,-6.903,-6.489,-21.09,-28.42,-43.47,17.1,0,0,0,0,0,0,0,0,0,0,0,0,0,0,0,0,
230,-48.54,-50.69,-72.28,-65.36,-50.67,-56.35,-62.27,-20.8,-52.02,-47.74,-18.45,-20.34,-25.43,-31.99,-58.79,12.62,0,0,0,0,0,0,0,0,0,0,0,0,0,0,0,0,
231,-49.93,-48.92,-70.93,-59.81,-51.71,-57.26,-57.93,-17.24,-54.2,-56.38,-18.32,-28.78,-39.03,-36.42,-60.06,8.646,0,0,0,0,0,0,0,0,0,0,0,0,0,0,0,0,
232,-52.03,-55.32,-76.74,-71.54,-53.56,-58.54,-62.19,-19.98,-45.79,-58.17,5.222,-9.77,-36.03,-32.64,-41.01,17.52,0,0,0,0,0,0,0,0,0,0,0,0,0,0,0,0,
233,-31.4,-56.67,-71.36,-71.59,-36.56,-44.88,-62.84,-15.81,-34.23,-49.07,29.13,17.88,-20.51,-24.45,-20.69,31.47,0,0,0,0,0,0,0,0,0,0,0,0,0,0,0,0,
234,-16.97,-53.6,-66.88,-67.37,-31.87,-43.12,-65.43,-20.26,-37.32,-46.67,18.99,8.51,-20.69,-22.67,-28.42,24.79,0,0,0,0,0,0,0,0,0,0,0,0,0,0,0,0,
235,-32.66,-55.74,-82.43,-82.73,-45.87,-57.64,-70.5,-32.39,-44.89,-46.77,4.525,-6.202,-28.59,-26.81,-35.3,8.589,0,0,0,0,0,0,0,0,0,0,0,0,0,0,0,0,
236,-29.54,-54.33,-80.44,-81.01,-33.21,-52.14,-60.18,-20.83,-33.64,-42.34,19.73,14.44,-25.21,-32.17,-19.73,8.729,0,0,0,0,0,0,0,0,0,0,0,0,0,0,0,0,
237,-2.688,-46.86,-56.04,-52.69,-10.25,-38.99,-45.94,1.467,-6.66,-36.13,36.72,35.85,-15.99,-31.75,-8.778,18.4,0,0,0,0,0,0,0,0,0,0,0,0,0,0,0,0,
238,6.05,-37.92,-45.01,-37.85,-13.47,-44.08,-45.38,5.026,-0.9032,-29.47,40.82,42.31,-6.365,-21.6,-1.057,30.48,0,0,0,0,0,0,0,0,0,0,0,0,0,0,0,0,
239,7.709,-24.85,-37.08,-34.14,-18.35,-45.1,-47.57,2.722,-30.98,-25.88,42.38,47.69,1.213,-11.76,5.206,42.08,0,0,0,0,0,0,0,0,0,0,0,0,0,0,0,0,
240,9.346,-17.93,-32.17,-30.23,-15.06,-37.37,-47.74,7.003,-46.75,-23.36,33.89,39.08,1.701,-8.508,-12.59,39.53,0,0,0,0,0,0,0,0,0,0,0,0,0,0,0,0,
241,-2.137,-21.57,-47.35,-38.72,-25.86,-43.4,-51.84,9.926,-23.56,-17.14,18.25,18.3,-7.649,-10.37,-37.37,25.05,0,0,0,0,0,0,0,0,0,0,0,0,0,0,0,0,
242,-11.53,-25.8,-53.12,-45.16,-37.07,-51.51,-53.93,10.66,-12.85,-12.85,6.893,2.083,-23.33,-15.1,-45.62,12.36,0,0,0,0,0,0,0,0,0,0,0,0,0,0,0,0,
243,-12.63,-33.37,-39.93,-41.07,-28.27,-41.96,-50,7.752,-25.51,-17.56,2.639,-4.958,-27.84,-12.69,-45.57,9.784,0,0,0,0,0,0,0,0,0,0,0,0,0,0,0,0,
244,-9.682,-40.68,-36.88,-46.75,-20.67,-31.47,-46.71,-1.139,-22.88,-26.64,8.664,3.628,-17.51,-3.613,-38.68,18,0,0,0,0,0,0,0,0,0,0,0,0,0,0,0,0,
245,-1.562,-33.29,-36.54,-49.15,-25.12,-34.24,-42.9,-5.65,-17.34,-27.7,13.77,15.7,-11.93,-0.6785,-32.36,24.08,0,0,0,0,0,0,0,0,0,0,0,0,0,0,0,0,
246,-2.104,-20.63,-28.6,-37.61,-25.73,-38.17,-36.79,-7.007,-23.06,-25.03,8.033,13.26,-11.75,-1.901,-39.41,25.32,0,0,0,0,0,0,0,0,0,0,0,0,0,0,0,0,
247,-7.277,-15.62,-30.23,-38.34,-25.29,-35.13,-33.14,-11.46,-15.87,-26.6,7.293,15.28,-4.023,1.16,-39.51,32.73,0,0,0,0,0,0,0,0,0,0,0,0,0,0,0,0,
248,6.969,-4.229,-28.92,-37.91,-20.91,-23.52,-22.32,-3.365,-6.238,-17.27,16.2,30.89,6.926,8.574,-25,39.31,0,0,0,0,0,0,0,0,0,0,0,0,0,0,0,0,
249,25.32,11.85,-17.51,-24.8,-9.249,-12.62,-9.744,8.955,-11.29,-5.325,20.23,31.29,12.66,15.79,-22.64,40.45,0,0,0,0,0,0,0,0,0,0,0,0,0,0,0,0,
250,24.68,10.61,-22.94,-29.52,-12.09,-13.41,-14.45,4.149,-6.998,-12.37,25.89,21.29,16.56,20.6,-23.84,50.05,0,0,0,0,0,0,0,0,0,0,0,0,0,0,0,0,
251,29.3,8.077,-24.52,-27.66,-15.2,-5.718,-12,6.779,-1.829,-15.05,39.09,30.11,20,24.07,-11.14,57.75,0,0,0,0,0,0,0,0,0,0,0,0,0,0,0,0,
252,43.97,15.71,-1.993,-4.269,-4.125,9.448,4.694,20.21,-21.85,-8.497,37.76,35.92,13.69,17.58,-10.24,45.54,0,0,0,0,0,0,0,0,0,0,0,0,0,0,0,0,
253,36.56,8.04,0.8457,-7.662,-8.96,3.038,2.467,16.53,-24.44,-14.49,26.86,24.19,5.748,3.592,-13.31,41.59,0,0,0,0,0,0,0,0,0,0,0,0,0,0,0,0,
254,26.38,2.131,-10.58,-16.59,-11.76,-2.349,-1.296,14.14,10.3,-12.87,42.51,34.2,18.4,8.528,17,69.79,0,0,0,0,0,0,0,0,0,0,0,0,0,0,0,0,
255,47.77,23.48,8.476,7.806,19.08,21.59,19.75,27.62,33.78,5.936,85.11,74.99,50.4,36.99,65.58,110.3,0,0,0,0,0,0,0,0,0,0,0,0,0,0,0,0,
256,85.51,51.93,40.66,35.82,53.64,59.47,52.29,44.34,58.78,26.27,125.8,117.8,90.22,70.43,104.5,149.1,0,0,0,0,0,0,0,0,0,0,0,0,0,0,0,0,
257,117.8,78.92,56.59,52.82,63.77,87,77.12,58.52,91.13,42.69,132.2,130.8,109.7,86.73,103.3,155.1,0,0,0,0,0,0,0,0,0,0,0,0,0,0,0,0,
258,113,78.28,47.27,46.13,38.68,71.18,60.37,45.21,49.74,28.3,81.25,80.53,69.05,60.21,29.56,91.56,0,0,0,0,0,0,0,0,0,0,0,0,0,0,0,0,
259,56.05,23.43,18.86,9.429,-6.487,23.83,12.5,10.61,-28.87,-12.95,11.18,3.89,6.341,14.06,-53.88,21.51,0,0,0,0,0,0,0,0,0,0,0,0,0,0,0,0,
260,4.905,-23.98,3.918,-10.84,-21.55,6.573,-6.054,-0.7905,-32.81,-30.47,-15.4,-21.77,-10.92,-0.6488,-68.58,15.05,0,0,0,0,0,0,0,0,0,0,0,0,0,0,0,0,
261,-2.99,-24.75,9.611,-4.2,-6.441,17.95,2.007,2.293,-18.65,-26.87,-2.876,-8.174,-4.149,6.028,-52.34,28.31,0,0,0,0,0,0,0,0,0,0,0,0,0,0,0,0,
262,4.418,-18.63,14.2,1.352,-1.621,20.7,11.49,2.903,-49.49,-23.52,11.83,2.045,0.7033,10.91,-41.56,34.13,0,0,0,0,0,0,0,0,0,0,0,0,0,0,0,0,
263,11.45,-8.219,9.481,4.184,-10.87,19.23,28.74,14.23,-48.94,-7.537,23.41,13.87,23.87,24.96,-15.93,57.15,0,0,0,0,0,0,0,0,0,0,0,0,0,0,0,0,
264,17.54,15.44,1.246,3.832,-20.24,19.08,39.25,26.41,-9.343,11.01,33.53,24.16,45.83,37.72,6.762,71.89,0,0,0,0,0,0,0,0,0,0,0,0,0,0,0,0,
265,18.48,23.41,2.308,4.827,-24.44,15.59,36.74,30.39,-2.654,12.12,34.82,25.47,45.12,36.96,8.593,65.54,0,0,0,0,0,0,0,0,0,0,0,0,0,0,0,0,
266,15.47,15.07,5.145,8.461,-23.97,13.07,34.64,30.53,-16.71,6.326,36.35,32.4,48.96,42.78,14.07,70,0,0,0,0,0,0,0,0,0,0,0,0,0,0,0,0,
267,16.21,17.01,0.9758,4.374,-17.97,17.49,34.44,29.28,-8.976,13.37,47.79,47.89,65.49,58.83,27,81.3,0,0,0,0,0,0,0,0,0,0,0,0,0,0,0,0,
268,33.21,30.51,5.239,5.024,-6.965,27.52,40.13,35.72,6.546,31.57,54.61,60.02,74.81,66.01,30.51,82.52,0,0,0,0,0,0,0,0,0,0,0,0,0,0,0,0,
269,53.6,36.25,6.151,8.034,-6.534,27.47,42.86,40.97,3.854,33.35,50.1,58.54,71.35,58.55,22.45,77.47,0,0,0,0,0,0,0,0,0,0,0,0,0,0,0,0,
270,52.05,30.75,-4.836,-2.856,-17.74,14.79,35.7,35.44,-8.782,15.24,46.12,43.55,60.45,45.49,6.149,65.34,0,0,0,0,0,0,0,0,0,0,0,0,0,0,0,0,
271,39.36,28.6,-3.017,-7.761,-20.09,6.708,37.5,34.76,-9.559,6.711,44.14,29.97,50.23,37.23,-10.05,51.57,0,0,0,0,0,0,0,0,0,0,0,0,0,0,0,0,
272,31.57,26.2,0.2837,-2.717,-16.82,-0.1131,39.71,38.68,-10.84,8.273,34.34,21.8,40.27,30.77,-16.96,42.97,0,0,0,0,0,0,0,0,0,0,0,0,0,0,0,0,
273,18.3,9.909,-12.18,-10.51,-25.69,-14.73,22.25,32.34,-30.45,1.803,14.1,10.09,25.27,18.98,-18.55,33.54,0,0,0,0,0,0,0,0,0,0,0,0,0,0,0,0,
274,2.354,-5.76,-20.18,-20.57,-36.6,-18.87,7.4,20.24,-38.27,-4.029,9.29,8.128,21.11,15.85,-14.32,29.02,0,0,0,0,0,0,0,0,0,0,0,0,0,0,0,0,
275,9.265,3.091,-15.7,-14.15,-28.64,-1.248,15.52,21.21,-17.53,7.759,32.7,25.28,35.1,30.66,-1.989,36.69,0,0,0,0,0,0,0,0,0,0,0,0,0,0,0,0,
276,33.09,28.49,-8.381,-2.278,-17.43,14.47,31.31,37.21,-1.467,30,40.55,33.27,43.12,42.83,1.339,42.85,0,0,0,0,0,0,0,0,0,0,0,0,0,0,0,0,
277,38.4,40.26,-9.408,-2.991,-26.99,12.13,37.21,38.94,3.013,35.33,31.23,25.49,40.51,41.35,-5.361,41.05,0,0,0,0,0,0,0,0,0,0,0,0,0,0,0,0,
278,31.92,30.84,-16.85,-15.04,-33.13,11.05,34.08,20.93,11.3,18.37,47.24,27.65,43,39.88,-2.714,43.25,0,0,0,0,0,0,0,0,0,0,0,0,0,0,0,0,
279,39.21,20.73,-9.741,-17.61,-14.97,23.45,31.02,15.94,11.89,7.925,54.25,32.44,47.2,43.71,-1.088,49.38,0,0,0,0,0,0,0,0,0,0,0,0,0,0,0,0,
280,45.13,21.16,4.57,-4.316,1.74,33.27,30.61,25.95,9.029,15.08,34.53,27.61,47.4,44.85,-10.67,45.72,0,0,0,0,0,0,0,0,0,0,0,0,0,0,0,0,
281,39.98,24.12,1.508,-0.3313,1.027,27.01,26.25,29.18,16.48,19.56,39.19,25.56,44.08,40.39,-11.12,34.52,0,0,0,0,0,0,0,0,0,0,0,0,0,0,0,0,
282,36.65,21.04,-9.397,-13.12,-6.485,12.72,13.17,24.41,16.41,16.31,52.94,23.89,35.85,35.92,-0.7862,30.3,0,0,0,0,0,0,0,0,0,0,0,0,0,0,0,0,
283,34.79,10.27,-14.45,-19.55,-10.77,6.309,-2.294,14.77,13.19,18.35,52.67,24.19,29.71,33.78,8.099,32.34,0,0,0,0,0,0,0,0,0,0,0,0,0,0,0,0,
284,31.3,-3.881,-25.25,-24.25,-14.39,0.4215,-12.85,1.179,19.82,18.7,65.72,30.15,28.04,30.46,15.63,32.77,0,0,0,0,0,0,0,0,0,0,0,0,0,0,0,0,
285,21.13,-15.53,-46.29,-41.39,-30.13,-19.57,-20.03,-9.792,3.76,6.617,63.77,18.91,24.76,29.52,11.03,34.15,0,0,0,0,0,0,0,0,0,0,0,0,0,0,0,0,
286,4.005,-21.93,-56.07,-48.46,-44.76,-31.11,-19.86,-10.88,-19.8,1.726,32.39,0.7013,24.46,33.1,-4.868,37.59,0,0,0,0,0,0,0,0,0,0,0,0,0,0,0,0,
287,0.36,-20.53,-41.64,-37.77,-31.53,-14.51,-4.335,1.138,3.834,13.49,27.86,4.524,29.94,31.71,-9.536,36.94,0,0,0,0,0,0,0,0,0,0,0,0,0,0,0,0,
288,8.408,-11.6,-23.49,-30.32,-11.78,1.02,14.37,17.25,30.4,18.02,42.6,3.245,31.33,23.86,-10.98,28.6,0,0,0,0,0,0,0,0,0,0,0,0,0,0,0,0,
289,1.286,-5.146,-20.9,-26.82,-18.97,-8.084,16.04,23.65,13.77,11.84,30.83,-17.47,25.58,18.27,-23.51,19.03,0,0,0,0,0,0,0,0,0,0,0,0,0,0,0,0,
290,-15.76,-5.17,-31.22,-25.89,-34.97,-23.11,3.417,16.08,3.109,9.512,16.88,-20.57,22.09,18.99,-23.37,20.61,0,0,0,0,0,0,0,0,0,0,0,0,0,0,0,0,
291,-20.11,-4.18,-48.29,-38.09,-35.94,-30.04,-10.1,2.158,4.11,3.423,27.24,-2.822,26.2,25.44,-1.005,31.47,0,0,0,0,0,0,0,0,0,0,0,0,0,0,0,0,
292,-9.97,-1.65,-56.98,-50.77,-31.28,-32.46,-15.94,0.8236,-1.883,-4.654,44.66,12.26,34.8,32.29,17.04,37.29,0,0,0,0,0,0,0,0,0,0,0,0,0,0,0,0,
293,8.206,6.516,-38.97,-39.08,-23.62,-21.47,-3.356,20.95,21.13,2.787,57.21,23.06,41.97,33.76,15.95,33.33,0,0,0,0,0,0,0,0,0,0,0,0,0,0,0,0,
294,18.7,22.77,-11.31,-15.18,-13.27,-3.763,19.09,43.23,41.21,14.32,55.92,21.9,38.33,29.65,4.967,23.04,0,0,0,0,0,0,0,0,0,0,0,0,0,0,0,0,
295,12.39,29.91,-3.52,-10.53,-12.9,-0.2909,28.67,48.43,16.8,15.87,43.03,11,31.74,27.38,2.514,17.45,0,0,0,0,0,0,0,0,0,0,0,0,0,0,0,0,
296,19.67,32,-5.878,-17.19,-11.65,5.959,30.5,41.17,18.59,20.85,50.63,20.94,46.15,38.64,15.71,26.45,0,0,0,0,0,0,0,0,0,0,0,0,0,0,0,0,
297,45.09,42.49,-8.4,-19.7,-7.239,16.21,29.43,32.66,49.81,28.98,68.57,40.96,65.78,51.78,23.82,33.07,0,0,0,0,0,0,0,0,0,0,0,0,0,0,0,0,
298,42.39,40.29,-21.65,-29.71,-20.17,1.127,15.62,26.93,30.71,24.89,50.03,29.53,56.89,42.2,8.133,20.7,0,0,0,0,0,0,0,0,0,0,0,0,0,0,0,0,
299,18.85,24.36,-25.93,-37.98,-28.29,-12,6.348,24.66,1.082,11.71,19.53,2.895,38.2,24.23,-16.97,6.09,0,0,0,0,0,0,0,0,0,0,0,0,0,0,0,0,
300,15.3,16.76,-13.75,-35.62,-14.38,1.024,11.57,23.18,15.45,-1.361,21.74,-2.07,35.86,22.36,-25.59,3.329,0,0,0,0,0,0,0,0,0,0,0,0,0,0,0,0,
301,19.23,11.55,-13.49,-37.64,-6.848,8.251,14.09,21.09,21.03,-9.01,30.68,2.851,35.27,22.53,-17.52,2.927,0,0,0,0,0,0,0,0,0,0,0,0,0,0,0,0,
302,15.59,4.636,-14.92,-35.72,-7.816,6.434,13.43,22.01,7.666,-10.9,25.17,-1.112,25.36,11.67,-13.89,-1.554,0,0,0,0,0,0,0,0,0,0,0,0,0,0,0,0,
303,13,-0.4387,-7.858,-28.02,-9.898,6.953,11.2,25.59,11.62,-19.03,19.84,-7.004,11.67,-2.042,-19.76,-9.67,0,0,0,0,0,0,0,0,0,0,0,0,0,0,0,0,
304,11.64,-5.409,-9.963,-26.1,-15.99,4.774,8.584,30.43,8.605,-30.64,12.68,-9.505,0.7954,-15.55,-28.41,-22.47,0,0,0,0,0,0,0,0,0,0,0,0,0,0,0,0,
305,13.64,-1.564,-2.456,-13.23,-7.858,9.302,19.52,40.93,-4.385,-25.02,6.498,-10.46,5.159,-20.77,-40.32,-29.86,0,0,0,0,0,0,0,0,0,0,0,0,0,0,0,0,
306,19.29,9.07,13.55,4.234,4.784,14.41,32.81,52.39,8.82,-7.379,10.46,-7.364,22.53,-9.206,-43.76,-18.46,0,0,0,0,0,0,0,0,0,0,0,0,0,0,0,0,
307,26.05,17.53,6.381,3.518,-2.787,9.041,30.79,51.02,19.22,-3.782,11.59,-2.642,29.63,2.143,-35.74,-2.475,0,0,0,0,0,0,0,0,0,0,0,0,0,0,0,0,
308,30.55,20.3,-4.594,-3.321,-12.91,5.598,21.72,37.74,0.853,-15.78,11.72,-5.036,22.9,1.892,-36.67,-1.69,0,0,0,0,0,0,0,0,0,0,0,0,0,0,0,0,
309,26.04,10.74,-4.957,-13.87,-13.54,4.592,13.57,27.89,-2.168,-20.36,22.9,-7.808,21.12,4.003,-37.77,-3.189,0,0,0,0,0,0,0,0,0,0,0,0,0,0,0,0,
310,25.9,5.723,-8.995,-28.75,-12.71,3.646,12.66,25.86,12.99,-12.62,24,-1.693,24.57,9.146,-26.3,-0.4269,0,0,0,0,0,0,0,0,0,0,0,0,0,0,0,0,
311,34.78,17.15,-9.069,-29.63,-8.886,6.22,18.79,22.38,11.89,-9.302,11.15,0.1149,20.3,5.44,-27.88,-12.65,0,0,0,0,0,0,0,0,0,0,0,0,0,0,0,0,
312,33.1,21.31,-11.12,-27.92,-6.635,4.175,17.31,17.47,10.99,-8.404,16.93,-4.854,12.44,-1.492,-41.87,-30.03,0,0,0,0,0,0,0,0,0,0,0,0,0,0,0,0,
313,28.6,16.9,-22.96,-38.04,-11.32,-0.3196,10.94,16.02,15.95,-2.084,28.13,-0.8275,11.91,-1.707,-39.81,-25.63,0,0,0,0,0,0,0,0,0,0,0,0,0,0,0,0,
314,33.82,19.09,-24.72,-40.48,-17.28,-0.2378,13.44,14.26,2.202,0.9245,13.5,5.997,20.34,6.334,-29.2,-8.65,0,0,0,0,0,0,0,0,0,0,0,0,0,0,0,0,
315,36.13,22.41,-19.84,-33.06,-21.89,-1.465,19.2,12.03,-17.48,4.214,4.151,4.844,31.78,18.57,-26.84,4.666,0,0,0,0,0,0,0,0,0,0,0,0,0,0,0,0,
316,29.73,21.55,-23.57,-36.75,-26.59,-8.929,11.27,5.057,-26.31,7.483,13.61,0.378,35.57,22.64,-29.65,16.31,0,0,0,0,0,0,0,0,0,0,0,0,0,0,0,0,
317,14.73,9.656,-28.21,-47.8,-31.87,-23.34,-13.39,-11.81,-32.37,-6.241,1.231,-8.465,29.53,17.56,-36.52,21.99,0,0,0,0,0,0,0,0,0,0,0,0,0,0,0,0,
318,-1.124,-12.22,-32.5,-50.73,-39.16,-37.75,-33.73,-20.6,-32.19,-24.77,-19.35,-15.64,23.43,17.51,-43.45,20.96,0,0,0,0,0,0,0,0,0,0,0,0,0,0,0,0,
319,-2.051,-22.62,-39.56,-50.26,-44.7,-40.71,-34.89,-15.58,-16.32,-26.57,-3.897,-5.929,23.52,20.98,-37.53,23.22,0,0,0,0,0,0,0,0,0,0,0,0,0,0,0,0,
320,9.749,-12.8,-37.36,-47.04,-35.74,-32.25,-22.28,-11.33,5.226,-16.87,27.8,10.86,27.45,20.66,-21.31,23.53,0,0,0,0,0,0,0,0,0,0,0,0,0,0,0,0,
321,22.75,6.125,-27.69,-35.65,-19.68,-24.02,-5.255,-4.822,5.065,-8.889,35.68,9.487,24.74,19.74,-18.72,12.86,0,0,0,0,0,0,0,0,0,0,0,0,0,0,0,0,
322,23.09,12.32,-33.28,-35.3,-25.8,-31.48,-7.133,-2.55,-20.03,-16.99,13.66,-13.19,9.244,12.3,-38.87,-0.6835,0,0,0,0,0,0,0,0,0,0,0,0,0,0,0,0,
323,1.987,-5.631,-54.98,-55.16,-49.15,-53.22,-33.19,-13.54,-33.64,-30.28,-12.71,-35.05,-1.823,2.044,-59,-7.061,0,0,0,0,0,0,0,0,0,0,0,0,0,0,0,0,
324,-18.14,-17.5,-71.08,-71.12,-62.12,-65.82,-43.83,-15.53,-29.84,-19.5,-12.65,-40.78,5.363,9.709,-65.55,-5.323,0,0,0,0,0,0,0,0,0,0,0,0,0,0,0,0,
325,-16.84,-4.327,-72.81,-71.62,-64.49,-61.55,-33.29,-10.88,-34.48,-4.218,-4.843,-42.04,11.27,21.49,-72.25,-3.677,0,0,0,0,0,0,0,0,0,0,0,0,0,0,0,0,
326,-11.27,1.81,-64.69,-68.33,-63.02,-58.15,-35.3,-21.62,-38.13,-10.22,-20.27,-49.85,3.116,15.98,-80.71,-8.561,0,0,0,0,0,0,0,0,0,0,0,0,0,0,0,0,
327,-15.48,-8.163,-57.99,-68.55,-58.92,-61.82,-40.53,-28.05,-32.92,-13.98,-32.74,-53.25,0.5041,16.32,-76.36,-10.69,0,0,0,0,0,0,0,0,0,0,0,0,0,0,0,0,
328,-17.15,-5.171,-58.61,-62.89,-56.68,-61.58,-29.82,-13.91,-37.16,-8.941,-24.92,-47.79,6.518,28.95,-66.36,-8.379,0,0,0,0,0,0,0,0,0,0,0,0,0,0,0,0,
329,-14.55,5.736,-55.76,-45.13,-54.31,-57.69,-19.51,1.936,-46.1,-9.165,-24.37,-48.79,3.057,28.82,-67.62,-13.88,0,0,0,0,0,0,0,0,0,0,0,0,0,0,0,0,
330,-21.09,0.9131,-48.34,-32.42,-51.65,-56.38,-14.92,9.094,-46.58,-7.313,-32.31,-59.94,-1.579,22.23,-72.25,-19.01,0,0,0,0,0,0,0,0,0,0,0,0,0,0,0,0,
331,-30.43,-9.841,-44.6,-29.48,-52.83,-54.24,-9.52,8.807,-40.96,-9.161,-33.26,-64.77,5.233,20.66,-68.51,-9.435,0,0,0,0,0,0,0,0,0,0,0,0,0,0,0,0,
332,-28.8,-12.79,-42.47,-22.8,-57.11,-50.24,-8.344,1.839,-38.16,-20.26,-36.05,-56.49,14.23,19.5,-61.52,5.848,0,0,0,0,0,0,0,0,0,0,0,0,0,0,0,0,
333,-17.9,-9.026,-42.32,-21.05,-58.78,-43.38,-11.23,-4.818,-51.13,-19.41,-43.53,-46.19,21.59,25.68,-55.6,14.73,0,0,0,0,0,0,0,0,0,0,0,0,0,0,0,0,
334,-8.63,-2.872,-48.51,-36.37,-58.07,-43.57,-26.57,-16.55,-69.97,-13.37,-50.35,-50.11,18.35,28.36,-56.97,10.33,0,0,0,0,0,0,0,0,0,0,0,0,0,0,0,0,
335,-24.07,-11.67,-66.73,-61.56,-72.3,-71.58,-58.97,-43.31,-75.3,-23.81,-59.87,-71.8,-0.5687,16.71,-67.65,-5.18,0,0,0,0,0,0,0,0,0,0,0,0,0,0,0,0,
336,-56.9,-28.74,-88.11,-77.61,-93.03,-96.75,-71.35,-57.33,-70.05,-32.41,-63.76,-84.49,-4.388,19.32,-67.16,-7.297,0,0,0,0,0,0,0,0,0,0,0,0,0,0,0,0,
337,-56.87,-21.3,-84.31,-68.72,-83.87,-81.18,-54.95,-42.52,-56.15,-29.44,-51.44,-74.63,8.069,32.88,-53.87,6.319,0,0,0,0,0,0,0,0,0,0,0,0,0,0,0,0,
338,-33.69,-11.03,-68.6,-57.12,-63.51,-66.03,-55.72,-40.96,-50.61,-35.73,-39.08,-71.52,-1.819,21.51,-53.82,3.705,0,0,0,0,0,0,0,0,0,0,0,0,0,0,0,0,
339,-34.92,-26.15,-74.36,-66.01,-67.09,-73.77,-68.59,-54.33,-67.71,-44.48,-44.59,-76.61,-17.83,4.903,-61.72,-6.806,0,0,0,0,0,0,0,0,0,0,0,0,0,0,0,0,
340,-38.31,-30.28,-79.84,-68.74,-67.59,-69.8,-60.5,-38.88,-63.63,-36,-52.87,-66.6,-8.506,11.04,-60.08,3.536,0,0,0,0,0,0,0,0,0,0,0,0,0,0,0,0,
341,-27.56,-16.15,-67.92,-50.19,-53.05,-63.68,-52.1,-17.1,-39.29,-23.77,-49.49,-62.24,-1.526,14.5,-63.01,9.485,0,0,0,0,0,0,0,0,0,0,0,0,0,0,0,0,
342,-35.51,-16.66,-61.45,-34.55,-52.58,-69,-50.07,-18.27,-54.71,-26.86,-53.34,-74.75,-14.06,1.588,-75.89,-10.08,0,0,0,0,0,0,0,0,0,0,0,0,0,0,0,0,
343,-48.62,-18.66,-57.6,-29.24,-55.05,-59.21,-32.93,-15.36,-73.97,-37.4,-64.53,-75.91,-24.73,-7.411,-80.89,-27.24,0,0,0,0,0,0,0,0,0,0,0,0,0,0,0,0,
344,-38.5,-9.536,-41.31,-20.38,-38.59,-40.51,-16.3,-5.903,-50.01,-36.15,-53.64,-63.16,-24.98,-4.559,-69.19,-24.22,0,0,0,0,0,0,0,0,0,0,0,0,0,0,0,0,
345,-25.2,-7.998,-29.58,-11.54,-24.75,-33.97,-14.05,-5.435,-33.31,-24.7,-30.01,-46.92,-14.21,5.929,-43.22,-5.426,0,0,0,0,0,0,0,0,0,0,0,0,0,0,0,0,
346,-18.93,-4.63,-35.04,-15.33,-23.27,-30.18,-9.818,-3.911,-36.68,-21.41,-20.11,-27.31,3.977,17.93,-18.76,13.75,0,0,0,0,0,0,0,0,0,0,0,0,0,0,0,0,
347,-11.62,12.04,-36.99,-16.07,-22.8,-27.37,-1.135,1.739,-32.9,-22.83,-16.8,-16.12,14.11,22.51,-12.41,13.79,0,0,0,0,0,0,0,0,0,0,0,0,0,0,0,0,
348,-13.13,20.23,-33.35,-4.89,-38,-35.49,-1.465,3.445,-30.99,-14.26,-14.44,-14.65,18.03,23.17,-14.26,9.589,0,0,0,0,0,0,0,0,0,0,0,0,0,0,0,0,
349,-20.66,16.11,-45.5,-6.541,-58.48,-44.22,-11.22,-2.974,-28.15,-6.329,-18.89,-13.32,23.29,25.32,-17.66,15.63,0,0,0,0,0,0,0,0,0,0,0,0,0,0,0,0,
350,-16.9,17.5,-45.32,-9.543,-39.43,-37.28,-13.94,-9.735,-30.13,-7.496,-27.65,-14.14,19.75,22.45,-30.35,11.39,0,0,0,0,0,0,0,0,0,0,0,0,0,0,0,0,
351,-6.117,21.94,-11.79,13.08,-4.589,-22.5,-4.282,-4.17,-41.5,-4.321,-31.69,-11.09,12.35,18.91,-35.18,5.485,0,0,0,0,0,0,0,0,0,0,0,0,0,0,0,0,
352,-1.665,23.1,-0.2431,27.98,-8.618,-23.01,-3.383,-2.33,-30.9,-0.3648,-23.07,-5.338,14.22,25.31,-23.64,17.84,0,0,0,0,0,0,0,0,0,0,0,0,0,0,0,0,
353,-11.55,20.9,-19.92,14.7,-29.32,-40.87,-23.26,-18.49,-16.96,-9.585,-20.87,-19.32,13,34.79,-24.99,23.47,0,0,0,0,0,0,0,0,0,0,0,0,0,0,0,0,
354,-34.18,7.848,-16.9,7.621,-29.42,-52.31,-43.91,-28.19,-25.17,-15.24,-37.8,-44.84,4.867,38.93,-40.74,15.79,0,0,0,0,0,0,0,0,0,0,0,0,0,0,0,0,
355,-50.73,-6.927,-3.518,14.25,-22.79,-48.23,-45.17,-23.64,-21.61,-4.103,-40.56,-47.89,6.845,40.66,-41.06,20.85,0,0,0,0,0,0,0,0,0,0,0,0,0,0,0,0,
356,-52.88,-7.415,-9.268,14.97,-22.07,-42.74,-36.4,-30.08,-11.23,-2.126,-27.56,-31.41,13.58,40.64,-28.27,30.61,0,0,0,0,0,0,0,0,0,0,0,0,0,0,0,0,
357,-49.11,-7.39,-11.21,14.45,-21,-39.84,-37.66,-46.91,-16.66,-21.38,-31.64,-24.95,6.837,32.59,-24.01,26.28,0,0,0,0,0,0,0,0,0,0,0,0,0,0,0,0,
358,-46.05,-20.93,-14.33,14.23,-28.76,-44.06,-49.41,-54.07,-26.73,-36.36,-39.03,-32.55,-5.55,19.01,-24.17,20.92,0,0,0,0,0,0,0,0,0,0,0,0,0,0,0,0,
359,-48.72,-34.66,-35.72,2.176,-45,-58.11,-58.88,-54.32,-34.39,-33.81,-33.28,-31.69,-5.503,17.62,-11.87,25.84,0,0,0,0,0,0,0,0,0,0,0,0,0,0,0,0,
360,-42.79,-33.28,-36.29,-3.49,-35.95,-52.85,-57.04,-48.49,-18.64,-23.1,-26.02,-17.88,0.802,29.1,3.18,29.14,0,0,0,0,0,0,0,0,0,0,0,0,0,0,0,0,
361,-25.15,-23.44,-11.95,10.79,-11.54,-33.54,-45.83,-25.72,2.559,-10.95,-17.22,-15.69,0.0544,34.61,1.236,25.81,0,0,0,0,0,0,0,0,0,0,0,0,0,0,0,0,
362,-32.99,-20.22,-16.82,14.76,-21,-45.13,-36.81,-4.853,-12.96,-0.2095,-12.91,-29.75,0.3878,37.4,-4.211,26.61,0,0,0,0,0,0,0,0,0,0,0,0,0,0,0,0,
363,-59.4,-18.1,-33.84,7.382,-38.56,-64.03,-34.82,-8.67,-23.11,5.901,-20.19,-38.87,4.69,43.53,-1.831,29.17,0,0,0,0,0,0,0,0,0,0,0,0,0,0,0,0,
364,-62.18,-9.713,-21.21,13.75,-25.83,-55.92,-36.23,-19.03,-17.26,7.471,-27.09,-40.52,1.716,40.42,-8.938,23.03,0,0,0,0,0,0,0,0,0,0,0,0,0,0,0,0,
365,-53.83,-3.797,-14.2,17.17,-17.73,-49.63,-36.17,-16.5,-30.94,10.6,-32.17,-42.43,-1.362,33.62,-24.32,13.98,0,0,0,0,0,0,0,0,0,0,0,0,0,0,0,0,
366,-52.74,1.693,-24.12,10.08,-23.12,-48.83,-30.21,-10.72,-23.97,20.05,-40.07,-40.73,5.491,37.36,-32.36,13.78,0,0,0,0,0,0,0,0,0,0,0,0,0,0,0,0,
367,-49.1,11.95,-18.97,13.24,-18.72,-37.34,-22.04,-11.15,-0.7781,33.44,-45.49,-31.83,19.3,50.7,-28.28,29.45,0,0,0,0,0,0,0,0,0,0,0,0,0,0,0,0,
368,-43.83,24.07,-11.11,23.62,-19.7,-29.33,-13.94,-11.78,-8.527,43.91,-47.51,-24.59,32.24,64.55,-16.75,48.33,0,0,0,0,0,0,0,0,0,0,0,0,0,0,0,0,
369,-45.58,30.77,-13.22,31.14,-33.67,-30.97,-5.982,-7.064,-23.35,44.17,-48.87,-35.95,24.24,62.01,-18.87,42.13,0,0,0,0,0,0,0,0,0,0,0,0,0,0,0,0,
370,-60.36,15.31,-15.65,33.64,-43.26,-39.52,-7.542,1.062,-37.39,41.92,-47.62,-51.8,0.1954,48.43,-29.91,21.41,0,0,0,0,0,0,0,0,0,0,0,0,0,0,0,0,
371,-67.63,-9.217,-18.14,30.44,-37.91,-46.01,-18.12,9.686,-40.55,44.6,-38.55,-43.77,-12.05,44.08,-23.5,11.73,0,0,0,0,0,0,0,0,0,0,0,0,0,0,0,0,
372,-50.4,-19.3,-13.52,26.34,-20.12,-38.11,-27.35,9.463,-5.699,36.36,-20.11,-30.62,-22.8,39.98,-10.49,3.71,0,0,0,0,0,0,0,0,0,0,0,0,0,0,0,0,
373,-36.9,-30.43,0.7798,26.73,-1.429,-24.53,-26.11,-0.4411,30.66,28.16,12.66,-17.77,-30.92,40.4,15.57,10.69,0,0,0,0,0,0,0,0,0,0,0,0,0,0,0,0,
374,-22.48,-32.88,18.31,39,15.2,-9.352,-12.08,-3.902,52.75,45.73,55.63,15.34,-11.97,57.53,60.93,42.65,0,0,0,0,0,0,0,0,0,0,0,0,0,0,0,0,
375,0.3594,-15.39,21.59,43.76,11.86,-8.992,-19.41,-14.24,50.22,51.76,54.44,20.25,-2.348,56.36,57.12,45.31,0,0,0,0,0,0,0,0,0,0,0,0,0,0,0,0,
376,-26.26,-25.75,-18.87,9.205,-36.05,-55.52,-68.78,-49.62,-16.53,19.95,-20.15,-29.22,-27.73,29.77,-2.315,13.93,0,0,0,0,0,0,0,0,0,0,0,0,0,0,0,0,
377,-87.63,-57.28,-73.06,-33.57,-84.78,-109.2,-107.8,-73.34,-77.93,0.4566,-82.8,-62.87,-42.24,19.43,-33.5,6.319,0,0,0,0,0,0,0,0,0,0,0,0,0,0,0,0,
378,-103.7,-56.39,-82.04,-42.04,-80.32,-111.6,-105.1,-64.63,-66.53,12.77,-75.48,-59.94,-33.13,26.5,-31.58,17.72,0,0,0,0,0,0,0,0,0,0,0,0,0,0,0,0,
379,-86.26,-41.84,-65.87,-34.26,-55.35,-94.04,-97.4,-56.62,-45.74,20.86,-58.7,-57.14,-28.18,32.19,-29.67,23.88,0,0,0,0,0,0,0,0,0,0,0,0,0,0,0,0,
380,-76.77,-38.75,-63.35,-28.79,-50.68,-93.25,-99.8,-62.16,-40.29,17.81,-58.3,-50.03,-29.83,35.79,-19.06,30,0,0,0,0,0,0,0,0,0,0,0,0,0,0,0,0,
381,-72.06,-35.47,-59.01,-20.47,-44.13,-85.25,-95.12,-67.94,-21.1,18.67,-40.38,-33.58,-30.87,33.65,-9.24,26.3,0,0,0,0,0,0,0,0,0,0,0,0,0,0,0,0,
382,-66.77,-35.09,-39.2,-9.518,-20.5,-64.75,-87.16,-67.21,-5.535,21.5,-15.75,-19.29,-28.15,32.13,-1.893,22.8,0,0,0,0,0,0,0,0,0,0,0,0,0,0,0,0,
383,-55.5,-31.88,-17.93,4.187,-4.546,-51.8,-85.72,-60.69,-0.4535,24.03,1.377,-2.678,-22.13,38.21,21.87,40.31,0,0,0,0,0,0,0,0,0,0,0,0,0,0,0,0,
384,-41.84,-19.76,-6.179,16.16,-2.192,-39.42,-83.37,-58.19,2.349,28.35,16.85,16.81,-16.66,43.9,46.53,57.63,0,0,0,0,0,0,0,0,0,0,0,0,0,0,0,0,
385,-35.87,-17.97,-2.014,19.11,1.96,-25.2,-78.42,-61.98,-7.182,29.09,16.99,33.92,-7.821,51.59,56.01,63.13,0,0,0,0,0,0,0,0,0,0,0,0,0,0,0,0,
386,-25.34,-23.04,1.925,21.27,4.462,-19.45,-74.62,-64.55,-13.85,28.64,12.9,45.63,2.685,61.27,58.44,69.27,0,0,0,0,0,0,0,0,0,0,0,0,0,0,0,0,
387,-7.139,-17.1,14.7,35.11,7.155,-5.274,-61.95,-63.59,0.9998,34.18,25.86,49.19,6.246,59.59,63.04,73.92,0,0,0,0,0,0,0,0,0,0,0,0,0,0,0,0,
388,5.354,-10.21,38.75,59.76,22.38,22.95,-41.96,-54.26,12.74,38.15,36.96,56.48,6.551,53.2,75.47,76.48,0,0,0,0,0,0,0,0,0,0,0,0,0,0,0,0,
389,16.41,-7.082,58.65,82.75,38.22,39.31,-30.34,-39.93,13.09,37.4,40.74,71.88,10.02,57.28,80.33,76.47,0,0,0,0,0,0,0,0,0,0,0,0,0,0,0,0,
390,23.55,4.365,59.87,89.55,41.17,36.97,-26.39,-35.36,25.58,38.36,45.31,72.65,12.77,61.71,66.36,69.52,0,0,0,0,0,0,0,0,0,0,0,0,0,0,0,0,
391,13.18,18.5,52.3,82.51,39.43,26.57,-26.82,-35.69,31.79,42.64,38.09,58.96,8.556,55.78,56.35,64.32,0,0,0,0,0,0,0,0,0,0,0,0,0,0,0,0,
392,3.425,23.56,51.02,78.87,41.22,17.94,-31.64,-29.74,16.16,50.28,27.11,57.52,-0.9511,50.65,55.33,61.56,0,0,0,0,0,0,0,0,0,0,0,0,0,0,0,0,
393,10.39,20.1,55.13,78.41,45.79,18.96,-34.37,-27.46,21.03,50.36,28.01,61.11,-7.506,50.97,49.38,55.67,0,0,0,0,0,0,0,0,0,0,0,0,0,0,0,0,
394,13.92,14.43,59.19,75.08,47.41,19.36,-37.28,-35.09,40.58,42.3,27.65,51.6,-11.14,47.09,43.51,50.08,0,0,0,0,0,0,0,0,0,0,0,0,0,0,0,0,
395,5.603,13.64,57.81,75.7,37.76,6.767,-47.67,-45.17,19.67,45.1,10.75,37.61,-22.83,37.57,33.15,39.53,0,0,0,0,0,0,0,0,0,0,0,0,0,0,0,0,
396,-12.87,5.462,41.15,67.57,17.76,-13.26,-66.31,-56,-19.47,45.8,-12.05,23.87,-38.79,29.52,22.08,32.62,0,0,0,0,0,0,0,0,0,0,0,0,0,0,0,0,
397,-37.67,-16.64,20.35,48.29,7.288,-25.08,-80.11,-62.02,-27.59,33.38,-10.24,17.85,-40.42,27.9,33.96,46.86,0,0,0,0,0,0,0,0,0,0,0,0,0,0,0,0,
398,-38.65,-21.85,18.22,47.07,14.9,-20.67,-74.15,-58.71,-16.73,29.96,6.51,29.13,-33.13,26.82,47.64,57.58,0,0,0,0,0,0,0,0,0,0,0,0,0,0,0,0,
399,-22.5,-9.477,21.76,53.51,19.61,-12.93,-65.1,-56.38,-1.29,28.12,4.211,44.24,-29.98,20.78,47.48,51.27,0,0,0,0,0,0,0,0,0,0,0,0,0,0,0,0,
400,-22.36,-10.94,22.8,50.69,20.95,-7.594,-67.48,-52.67,12.7,21.81,8.743,59.55,-23.74,20.94,66.08,54.97,0,0,0,0,0,0,0,0,0,0,0,0,0,0,0,0,
401,-15.11,-17.81,40.2,60.79,35.58,1.483,-68.53,-44.5,12.73,27.52,33.68,75.23,-24.05,25.96,87.72,58.16,0,0,0,0,0,0,0,0,0,0,0,0,0,0,0,0,
402,6.431,-22.89,55.55,73.35,49.52,5.295,-71.21,-49.42,22.73,27.08,42.98,77.07,-40.48,18.19,81.73,41.11,0,0,0,0,0,0,0,0,0,0,0,0,0,0,0,0,
403,10.82,-40.07,50.44,69.23,48.59,2.875,-78.42,-62.45,33.71,17.1,42.19,71.96,-51.23,4.197,71.41,26.45,0,0,0,0,0,0,0,0,0,0,0,0,0,0,0,0,
404,9.079,-55.18,46.54,63.85,40.81,3.61,-76.1,-67.33,1.207,18.96,38.11,66.13,-53.48,-1.202,61.78,21.46,0,0,0,0,0,0,0,0,0,0,0,0,0,0,0,0,
405,17.16,-51.82,47.94,63.4,40.51,8.924,-64.55,-68.31,-13.09,19.59,22.22,58.22,-53.94,-0.1344,52.82,19.77,0,0,0,0,0,0,0,0,0,0,0,0,0,0,0,0,
406,24.4,-36.69,51.06,70.04,52.06,18.93,-52,-63.94,32.87,18.05,18.23,61.54,-42.12,5.631,63.49,29.11,0,0,0,0,0,0,0,0,0,0,0,0,0,0,0,0,
407,25.48,-22.55,57.76,75.78,53.08,21.12,-47.79,-58.93,41.31,27.73,18.62,63.97,-28.25,16.96,73.54,42,0,0,0,0,0,0,0,0,0,0,0,0,0,0,0,0,
408,21.44,-14.08,57.98,70.54,42.4,14.86,-50.52,-59.81,1.391,35.01,8.843,54.41,-19.34,31.38,72.81,53.34,0,0,0,0,0,0,0,0,0,0,0,0,0,0,0,0,
409,22.5,-0.8036,61.84,80.43,48.02,23.49,-38.92,-51.13,-3.57,42.79,11.86,57.37,-1.419,48.11,83.03,72.13,0,0,0,0,0,0,0,0,0,0,0,0,0,0,0,0,
410,33.28,18.25,75.61,102.8,62.94,42,-16.74,-40.03,13.13,59.65,17.06,71.57,19.35,66.86,92.86,89.11,0,0,0,0,0,0,0,0,0,0,0,0,0,0,0,0,
411,46.1,32.81,82.89,106.4,72.71,51.72,-7.776,-41.51,17.89,66.17,13.01,77.43,29.08,78.88,90.31,91.88,0,0,0,0,0,0,0,0,0,0,0,0,0,0,0,0,
412,55.57,43.45,88.69,106.2,82.26,57.6,-6.703,-38,17.87,65.07,19.17,82.64,30.74,78.89,92.33,92.05,0,0,0,0,0,0,0,0,0,0,0,0,0,0,0,0,
413,59.23,52.37,99.62,116.4,87.25,66.28,3.038,-27.18,13.01,76.96,26.87,96.44,32.95,80.32,104.8,102.8,0,0,0,0,0,0,0,0,0,0,0,0,0,0,0,0,
414,65.49,59.51,106.2,122.1,86.67,72.11,15.74,-26.65,9.9,84.72,20.94,105.4,30.92,81.74,114.4,110.3,0,0,0,0,0,0,0,0,0,0,0,0,0,0,0,0,
415,71.52,60.26,107.9,119.1,86.29,69.32,20.07,-33.85,8.221,73.96,9.139,96.34,18.26,72.17,111,102.9,0,0,0,0,0,0,0,0,0,0,0,0,0,0,0,0,
416,67.29,54.37,107.2,112.9,91.08,69.27,22.36,-33.73,6.893,72.42,6.45,88.53,13.16,68.64,105.2,97.25,0,0,0,0,0,0,0,0,0,0,0,0,0,0,0,0,
417,67.17,50.84,104,110.6,93.99,73.89,21.63,-24.97,2.736,79.31,13.42,95.31,11.72,65.79,106.1,93.22,0,0,0,0,0,0,0,0,0,0,0,0,0,0,0,0,
418,68.23,38.59,101,108.3,84.68,69.83,6.941,-24.98,-17.26,66.65,10.76,96.97,-9.063,44.29,107.5,80.37,0,0,0,0,0,0,0,0,0,0,0,0,0,0,0,0,
419,67.15,19.46,107,106.7,87.28,76.8,-2.549,-32.16,-20.27,57.07,5.163,95.37,-22.47,31.54,105.7,72.68,0,0,0,0,0,0,0,0,0,0,0,0,0,0,0,0,
420,81.25,19.65,118.3,111,99.43,94.1,0.028,-32.1,5.369,65.25,6.137,97.03,-15.25,34.75,94.69,65.66,0,0,0,0,0,0,0,0,0,0,0,0,0,0,0,0,
421,84.06,25.76,114.1,105.4,88.33,83.44,-10.63,-35.58,14.25,65.4,-2.545,87.75,-12.93,34.48,82.93,55.54,0,0,0,0,0,0,0,0,0,0,0,0,0,0,0,0,
422,67.98,26.96,108.8,101.5,86.83,68.93,-17.19,-37.16,13.22,71.09,-4.619,80.86,-6.979,43.31,86.99,63.64,0,0,0,0,0,0,0,0,0,0,0,0,0,0,0,0,
423,73.07,39.06,124.9,121.8,108.8,81.52,2.792,-23.81,13.99,89.37,5.449,86.06,1.643,52.94,89.82,72.03,0,0,0,0,0,0,0,0,0,0,0,0,0,0,0,0,
424,86.29,43.1,137.5,135,111,92.2,16.9,-19.58,3.541,87.91,0.8236,89.36,-1.752,50.22,87.94,68.58,0,0,0,0,0,0,0,0,0,0,0,0,0,0,0,0,
425,86.8,33.41,137.9,129,108.9,94.23,6.49,-30,7.795,78.45,2.43,97.05,4.647,57.69,99.45,83.61,0,0,0,0,0,0,0,0,0,0,0,0,0,0,0,0,
426,87.24,31.98,138,123.5,116.1,95,-11.28,-39.02,10.13,80.42,15.53,105.8,13.4,63.25,102.3,96.12,0,0,0,0,0,0,0,0,0,0,0,0,0,0,0,0,
427,83.54,27.27,128.4,110.4,105.4,86.79,-22,-47.41,-8.366,78.29,9.254,102.8,2.296,50.35,90.22,80.97,0,0,0,0,0,0,0,0,0,0,0,0,0,0,0,0,
428,86.17,19.72,121.1,100.1,100.3,85.62,-18.27,-45.22,8.212,76.78,11.93,105.1,-1.835,46.06,92.94,77.81,0,0,0,0,0,0,0,0,0,0,0,0,0,0,0,0,
429,103.8,27.09,132.3,110.4,115.8,97.52,-4.774,-30.11,34.09,78.1,29.9,115.6,3.776,44.97,98.07,86.66,0,0,0,0,0,0,0,0,0,0,0,0,0,0,0,0,
430,109.2,31.13,141.6,118.3,115.9,104.6,6.179,-20.43,5.64,69.64,15.69,113.1,-6.948,28.91,87.94,74.55,0,0,0,0,0,0,0,0,0,0,0,0,0,0,0,0,
431,100.6,26.53,138.4,115.1,103.5,108.5,9.617,-17.67,-19.41,66.9,-6.778,101.6,-16.06,24.72,83.78,64.51,0,0,0,0,0,0,0,0,0,0,0,0,0,0,0,0,
432,100.2,33.54,134,118.2,106.7,117.3,13.55,-17.46,-5.827,74.79,-3.937,98.78,-10.44,33.55,89.42,70.76,0,0,0,0,0,0,0,0,0,0,0,0,0,0,0,0,
433,106.3,38.45,135.4,128.9,114.1,124.5,27.94,-19.79,5.482,73.43,-1.613,106.4,-13.77,23.34,94.64,69.67,0,0,0,0,0,0,0,0,0,0,0,0,0,0,0,0,
434,109.3,25.49,145.5,138.6,113.4,128.9,42.93,-19.77,21.13,67.41,11.58,119.4,-24.17,5.478,106.5,64.78,0,0,0,0,0,0,0,0,0,0,0,0,0,0,0,0,
435,116.9,18,160.5,146.3,120.3,139.2,52.42,-15.78,40.89,67.18,40.46,132.1,-24.7,3.036,115.5,64.9,0,0,0,0,0,0,0,0,0,0,0,0,0,0,0,0,
436,132.2,26.65,169.6,155.4,129,149.7,66.22,-9.424,35.26,67.88,34.91,135,-20.33,7.288,109.2,63.59,0,0,0,0,0,0,0,0,0,0,0,0,0,0,0,0,
437,135.1,36.28,169.5,162.9,124.5,146.3,72.96,-6.221,23.46,75.44,12.77,132.8,-6.371,20.15,110.7,73.17,0,0,0,0,0,0,0,0,0,0,0,0,0,0,0,0,
438,126,47.23,163.5,160.1,121.3,135.1,62.43,-8.293,23.17,89.48,18.14,137.1,19.39,45.04,125.5,95.06,0,0,0,0,0,0,0,0,0,0,0,0,0,0,0,0,
439,126.2,59.72,152.6,149.4,122,129.2,55.37,-10.95,24.01,94.69,21.76,141.1,32.25,60.39,129.2,104.2,0,0,0,0,0,0,0,0,0,0,0,0,0,0,0,0,
440,130.8,65.16,152.7,149,124.9,134.7,63.17,-13.73,28.61,98.25,20.89,140.7,30.62,63.29,130.4,99.56,0,0,0,0,0,0,0,0,0,0,0,0,0,0,0,0,
441,129.3,66.5,171.2,160.7,137.7,147.7,70.95,-12.82,25.25,107.2,34.22,136.6,30.72,65.54,134.1,95.65,0,0,0,0,0,0,0,0,0,0,0,0,0,0,0,0,
442,123.5,58.44,173.2,160.1,133.6,148,64.02,-11.66,2.386,103.5,27.71,119.3,22.5,59.8,118.7,88.55,0,0,0,0,0,0,0,0,0,0,0,0,0,0,0,0,
443,113.5,38.4,157.9,149.8,114,138.9,51.3,-17.93,-4.531,90.97,8.249,100.8,5.874,46.53,100.9,79.22,0,0,0,0,0,0,0,0,0,0,0,0,0,0,0,0,
444,108.5,26.86,165.5,155.2,121.6,143.5,53.04,-11.52,25.41,88.32,12.87,102.8,0.9272,39.84,103.8,79.23,0,0,0,0,0,0,0,0,0,0,0,0,0,0,0,0,
445,114.2,30.14,179.8,166.8,136.6,152.2,62.56,13.63,42.94,91.65,22.34,118.6,9.201,44.65,114.9,87.76,0,0,0,0,0,0,0,0,0,0,0,0,0,0,0,0,
446,128.2,42.59,181.3,169.6,136.2,157,69.27,25.42,24.47,98.26,30.25,137.3,20.06,54.67,131.1,95.4,0,0,0,0,0,0,0,0,0,0,0,0,0,0,0,0,
447,146.8,61.29,189.1,170.9,146,170.6,84.22,18.44,28.27,106.3,45.4,149.1,24.75,57.38,144.4,97.22,0,0,0,0,0,0,0,0,0,0,0,0,0,0,0,0,
448,152.4,67.27,191.8,170.1,153.2,178.8,97.17,14.36,54.06,108.7,42.09,140.7,20.18,55.16,138.1,96.96,0,0,0,0,0,0,0,0,0,0,0,0,0,0,0,0,
449,138.8,57.18,186,169.4,142.1,168.6,93.7,16.83,40.69,113.4,26.58,124.6,14.64,60.8,126.3,98.53,0,0,0,0,0,0,0,0,0,0,0,0,0,0,0,0,
450,125.1,56.48,187.6,172.2,135.8,158.5,95.04,22.07,22.79,119.2,23.23,120.9,14.41,67.92,121.4,98.02,0,0,0,0,0,0,0,0,0,0,0,0,0,0,0,0,
451,120.8,69.53,182.2,167.9,132,156,105,28.82,27.42,119.7,14.9,126.5,20.17,71.23,121.7,98.84,0,0,0,0,0,0,0,0,0,0,0,0,0,0,0,0,
452,124.1,79.58,174,160,124.1,153.6,104.4,31.15,8.386,126.3,5.148,130.2,29.22,76.19,131.9,106.6,0,0,0,0,0,0,0,0,0,0,0,0,0,0,0,0,
453,130.2,81.99,178.6,158.2,126.5,154.6,102.4,29.43,2.234,129.2,16.74,127.8,32.43,76.43,141.2,108.9,0,0,0,0,0,0,0,0,0,0,0,0,0,0,0,0,
454,133,79.51,179.4,159.3,131,157.9,101.8,27.53,26.5,113.1,26.77,126.9,31.57,72.3,144.4,103.8,0,0,0,0,0,0,0,0,0,0,0,0,0,0,0,0,
455,135,71.55,172.4,157.7,128.2,155.2,87.28,18.23,14.24,100.1,24.12,134.1,33.52,72.76,154.7,106.1,0,0,0,0,0,0,0,0,0,0,0,0,0,0,0,0,
456,140.4,62.61,168.9,153.2,134.6,153.4,77.34,9.052,10.67,104.3,34.05,138.7,30.7,73.01,159.1,109.6,0,0,0,0,0,0,0,0,0,0,0,0,0,0,0,0,
457,146.5,63.03,171.4,158.6,148.4,157.7,88.95,22.23,59.17,112.1,38.91,130.5,24.74,71.72,141.7,103,0,0,0,0,0,0,0,0,0,0,0,0,0,0,0,0,
458,141.2,67.61,174.9,169.8,145.7,152.6,90.12,34.23,62.56,110.6,10.96,111.6,21.13,67.1,114.9,88.99,0,0,0,0,0,0,0,0,0,0,0,0,0,0,0,0,
459,114.7,57.25,164.2,157.5,126.7,130.6,64.7,15.44,11.21,95.93,-18,87.76,6.544,51.41,88.51,70.59,0,0,0,0,0,0,0,0,0,0,0,0,0,0,0,0,
460,88.86,36.31,148.6,136,117.3,111.7,46.39,0.7383,-1.076,86.12,-20.35,72.85,-11.42,41.19,76.15,60.74,0,0,0,0,0,0,0,0,0,0,0,0,0,0,0,0,
461,88.98,28.6,146.4,136,123.7,108.6,47.95,6.948,18.75,89.94,-13.35,74.03,-13.83,43.85,83.43,62.18,0,0,0,0,0,0,0,0,0,0,0,0,0,0,0,0,
462,92.75,28.1,134,128.3,116,102,41.56,0.0129,15.68,83.97,-11.61,72.76,-17.82,36.13,84.95,55.88,0,0,0,0,0,0,0,0,0,0,0,0,0,0,0,0,
463,74.97,13.71,101.2,97.4,87.31,80.46,25.56,-14.79,2.045,71.68,-15.19,62.8,-27.63,26.02,80.85,50.25,0,0,0,0,0,0,0,0,0,0,0,0,0,0,0,0,
464,58.79,2.951,86.08,86.95,76.26,68.89,27.2,-10.93,-0.7177,73.98,-21.79,62.81,-25.38,32.54,92.04,56.73,0,0,0,0,0,0,0,0,0,0,0,0,0,0,0,0,
465,58.82,11.53,95.68,99.21,84.99,69.92,38.02,-0.1547,-8.973,77.35,-24.3,69.88,-24.29,37.75,103.5,57.61,0,0,0,0,0,0,0,0,0,0,0,0,0,0,0,0,
466,54.12,13.77,97.86,97.72,80.25,60.7,32.93,1.814,-16.83,74.55,-14.81,70.2,-29.62,36.68,107.4,56.75,0,0,0,0,0,0,0,0,0,0,0,0,0,0,0,0,
467,52.23,6.535,100.5,99.37,82.61,62.27,28.54,2.018,5.702,75.37,2.042,75.78,-25.46,41.32,116.4,63.62,0,0,0,0,0,0,0,0,0,0,0,0,0,0,0,0,
468,72.06,9.98,124.1,120.9,109.7,90.22,40.63,7.375,33.77,74.14,3.815,87.35,-22.24,43.42,117.5,63.29,0,0,0,0,0,0,0,0,0,0,0,0,0,0,0,0,
469,86.07,9.286,138.5,125,117.9,103.7,45.35,8.525,23.4,74.07,-15.42,80.78,-27.77,38.44,104.6,56.63,0,0,0,0,0,0,0,0,0,0,0,0,0,0,0,0,
470,73.32,-2.466,127.4,108.2,99.4,91.03,37.86,3.041,-5.336,83.26,-28.34,63.08,-29.3,34.32,96.14,52.9,0,0,0,0,0,0,0,0,0,0,0,0,0,0,0,0,
471,58.2,-0.685,119.4,106.3,92.66,84.07,43.54,7.37,-15.74,90.67,-27.69,60.02,-26.98,35.72,96.12,49.64,0,0,0,0,0,0,0,0,0,0,0,0,0,0,0,0,
472,56.65,8.916,115.8,111,94.29,84.81,55.38,17.43,-16.28,92.21,-35.31,57.63,-30.15,38.82,93.05,46.17,0,0,0,0,0,0,0,0,0,0,0,0,0,0,0,0,
473,53.58,1.5,107.3,103.5,82.17,79.8,50.83,15.67,-23.81,93.33,-46.96,42.17,-35.78,39.13,86.29,44.97,0,0,0,0,0,0,0,0,0,0,0,0,0,0,0,0,
474,43.87,-7.944,110.2,99.62,72.2,79.01,47.14,11.39,-21.12,95.94,-43.48,38.06,-29.55,46.49,86.56,51.7,0,0,0,0,0,0,0,0,0,0,0,0,0,0,0,0,
475,42.9,0.7891,118.6,104.1,79.67,85.06,56.65,10.69,-7.526,100.9,-38.17,40.95,-20.63,52.63,87.01,54.86,0,0,0,0,0,0,0,0,0,0,0,0,0,0,0,0,
476,41.57,2.785,111.2,99.01,78.96,77.49,52.05,4.051,-24.5,99.76,-48.63,26.36,-30.07,38.5,74.64,42.9,0,0,0,0,0,0,0,0,0,0,0,0,0,0,0,0,
477,25.46,-12.87,96.68,89.76,59.42,57.87,36.3,2.566,-55.18,91.26,-59.81,17.01,-38.44,29.2,67.59,41.39,0,0,0,0,0,0,0,0,0,0,0,0,0,0,0,0,
478,17.69,-18.35,91.98,92.82,49.26,49.55,36.92,10.39,-44.1,85.27,-64.74,19.64,-41.04,30.08,67.51,44.9,0,0,0,0,0,0,0,0,0,0,0,0,0,0,0,0,
479,17.85,-24.14,89.69,91.2,48.14,49.55,36.27,2.464,-27.7,74.35,-77.49,7.511,-65.66,7.314,52.25,20.68,0,0,0,0,0,0,0,0,0,0,0,0,0,0,0,0,
480,8.855,-46.22,83.53,75.77,44.33,51.68,24.53,-15.35,-41.01,58.21,-83.57,4.721,-85.8,-17.8,45.82,1.291,0,0,0,0,0,0,0,0,0,0,0,0,0,0,0,0,
481,20.1,-50.92,86.07,73.29,53.93,65.23,26.35,-12.14,-33.15,53.16,-66.5,28.89,-76.85,-19.72,61.01,11.07,0,0,0,0,0,0,0,0,0,0,0,0,0,0,0,0,
482,50.12,-38.39,94.84,81.06,66.44,77.28,30.68,-3.894,-11.3,53.8,-51.25,41.52,-69.31,-20.69,60.69,16.76,0,0,0,0,0,0,0,0,0,0,0,0,0,0,0,0,
483,56.74,-36.75,94.33,77.76,59.96,71.62,22.69,-15.02,-28.23,51.58,-53.84,35.55,-64.78,-18.01,48.9,16.28,0,0,0,0,0,0,0,0,0,0,0,0,0,0,0,0,
484,46.03,-33.94,87.73,74.96,46.57,56.28,20.89,-26.86,-47.63,51.41,-57.01,32.29,-55.73,-8.157,51.67,21.35,0,0,0,0,0,0,0,0,0,0,0,0,0,0,0,0,
485,37.56,-27.68,79.06,75.56,35.89,42.98,25,-29.05,-29.79,47.2,-47.99,35.9,-58.29,-9.308,59.43,24,0,0,0,0,0,0,0,0,0,0,0,0,0,0,0,0,
486,31.38,-29.93,67.89,70.11,27.37,34.79,29.77,-26.8,-14.97,38.1,-38.31,42.77,-59.76,-9.518,64.97,28.56,0,0,0,0,0,0,0,0,0,0,0,0,0,0,0,0,
487,26.71,-28.54,61.02,70.27,19.8,25.05,44.2,-15.71,-30.1,39.21,-46.38,34.91,-49.12,-1.621,66.61,31.44,0,0,0,0,0,0,0,0,0,0,0,0,0,0,0,0,
488,19.11,-16.89,57.92,80.19,9.191,18.04,58.08,-2.65,-49.83,52.28,-59.14,18.71,-41.33,0.5253,62.71,27.6,0,0,0,0,0,0,0,0,0,0,0,0,0,0,0,0,
489,15.71,-3.057,51.77,85.71,-2.804,19.77,58.74,4.467,-55.87,63.37,-59.45,20.98,-39.78,2.126,62.63,28.54,0,0,0,0,0,0,0,0,0,0,0,0,0,0,0,0,
490,11.38,-0.9677,34.78,75.78,-24.96,8.867,49.94,3.528,-63.64,65.38,-63.5,20.36,-40.36,8.328,65.47,32.48,0,0,0,0,0,0,0,0,0,0,0,0,0,0,0,0,
491,-5.229,-11.2,14.02,61.03,-50.72,-5.952,44.96,-4.408,-78.8,64.42,-64.16,8.584,-37.9,14.71,70.09,34.44,0,0,0,0,0,0,0,0,0,0,0,0,0,0,0,0,
492,-3.599,-8.832,19.29,68.18,-41.36,13.49,62.58,4.331,-64.76,69.34,-37.64,18.36,-30.26,22.19,86.78,41.4,0,0,0,0,0,0,0,0,0,0,0,0,0,0,0,0,
493,25.26,8.147,50.36,92.51,2.721,53.48,97.75,31.87,-16.6,84.69,3.18,43.71,-16.87,36.45,125.3,68.76,0,0,0,0,0,0,0,0,0,0,0,0,0,0,0,0,
494,55.84,25.24,81.8,111.2,48.08,92.02,128.2,47.63,16.05,104.2,50.99,73.86,7.848,62.19,179.9,119.3,0,0,0,0,0,0,0,0,0,0,0,0,0,0,0,0,
495,87.2,41.56,106.5,124.9,78.1,124.3,142,50.43,22.43,105.5,82.71,99.9,15.28,72.83,196.2,136.7,0,0,0,0,0,0,0,0,0,0,0,0,0,0,0,0,
496,91.63,31.86,103.5,122.5,66.06,111.2,121.3,40.78,10.06,75.21,39.81,75.03,-23.82,37.08,135.4,81.54,0,0,0,0,0,0,0,0,0,0,0,0,0,0,0,0,
497,40.96,-15.12,62.19,89.75,11.48,51.42,68.79,7.657,-31.01,35.39,-46.81,18.74,-63.87,-10.71,61.07,17.8,0,0,0,0,0,0,0,0,0,0,0,0,0,0,0,0,
498,-6.35,-49.44,28.68,56.49,-25.11,11.02,31.02,-18.79,-60.24,19.43,-83.05,9.778,-61.18,-22.03,35.42,0.597,0,0,0,0,0,0,0,0,0,0,0,0,0,0,0,0,
499,-0.2613,-41.13,32.47,52.7,-18.25,11.99,29.01,-15.41,-46.94,28.52,-66.53,37.91,-41.42,-7.649,40.59,9.481,0,0,0,0,0,0,0,0,0,0,0,0,0,0,0,0,
500,23.14,-19.22,49.94,68.9,-3.908,21.8,35.26,-7.226,-29.73,37.73,-45.04,51.12,-28.77,9.112,57.85,27.68,0,0,0,0,0,0,0,0,0,0,0,0,0,0,0,0,
501,22.79,-15.67,52.21,76.86,-5.153,16.09,31.3,-13.16,-31.28,42.19,-32.65,51.05,-20.29,26.49,81.42,50.71,0,0,0,0,0,0,0,0,0,0,0,0,0,0,0,0,
502,2.176,-29.91,33.05,59.96,-26.29,-12.27,20.99,-28.7,-48.99,47.92,-30.11,45.98,-17.77,38.02,96.06,63.75,0,0,0,0,0,0,0,0,0,0,0,0,0,0,0,0,
503,-17.48,-39.31,13.7,38.87,-55.63,-42.37,13.02,-41.71,-65.56,43.17,-27.78,35.1,-25.29,37.88,99.76,59.12,0,0,0,0,0,0,0,0,0,0,0,0,0,0,0,0,
504,-28.02,-42.1,6.904,35.11,-66.13,-50.1,12.03,-43.73,-61.57,36.48,-21.43,25.32,-40.03,32.97,96.19,46.22,0,0,0,0,0,0,0,0,0,0,0,0,0,0,0,0,
505,-32.27,-48.9,1.079,35.09,-65.91,-44.81,17.94,-39.36,-70.21,47.97,-17.91,17.28,-42.63,31.6,99.08,52.47,0,0,0,0,0,0,0,0,0,0,0,0,0,0,0,0,
506,-19.03,-36.98,-0.0451,34.4,-69.83,-27.65,33.82,-32.02,-83.03,60.53,-4.755,19.57,-18.55,37.39,122.3,80.28,0,0,0,0,0,0,0,0,0,0,0,0,0,0,0,0,
507,12.82,-3.22,6.1,38.24,-58.23,7.584,52.17,-25.01,-45.32,63.14,12.49,37.66,6.383,44.84,138.5,94.69,0,0,0,0,0,0,0,0,0,0,0,0,0,0,0,0,
508,35.02,11.47,7.511,37.23,-37.87,37.02,62.57,-24.34,-7.148,69.53,8.396,50.98,12.6,47.41,130.5,93.23,0,0,0,0,0,0,0,0,0,0,0,0,0,0,0,0,
509,46.54,13.88,15.51,42.44,-28.84,54.29,78.71,-20.13,-14.94,75.92,-1.021,53.27,20.1,51.76,126.6,97.31,0,0,0,0,0,0,0,0,0,0,0,0,0,0,0,0,
510,66.32,34.34,33.67,60.38,-19.45,71.21,100.5,-6.75,-18.82,78.06,4.808,61.44,31.09,58.91,134.4,100.9,0,0,0,0,0,0,0,0,0,0,0,0,0,0,0,0,
511,78.66,47.66,44.69,68.69,-8.238,78.18,108.1,5.127,-5.343,83.41,15.39,78.38,32.44,59.03,138.3,100.5,0,0,0,0,0,0,0,0,0,0,0,0,0,0,0,0,
512,82.01,45.3,57.95,72,5.623,85.04,111.7,16.45,10.93,93.61,20.64,93.14,35.72,57.91,136.2,99.34,0,0,0,0,0,0,0,0,0,0,0,0,0,0,0,0,
513,96.15,54.86,72.43,77.37,26.37,101.5,117.7,22.98,23.38,107.7,16.66,96.74,44.32,64.45,129.7,93.52,0,0,0,0,0,0,0,0,0,0,0,0,0,0,0,0,
514,104.3,63.48,64.76,67.18,32.09,101.9,107.7,10.31,22.32,114.6,25.13,100.4,46.44,69.71,135,97,0,0,0,0,0,0,0,0,0,0,0,0,0,0,0,0,
515,98.79,54.1,49.98,51.39,26.26,84.91,85.88,-8.257,35.42,102.5,56.25,115.6,39.34,62.74,152.3,106.6,0,0,0,0,0,0,0,0,0,0,0,0,0,0,0,0,
516,89.17,36.73,40.97,37.85,22.33,60.67,61.8,-20.65,36.94,81.45,51.43,111.5,21.8,43.86,141.8,92.66,0,0,0,0,0,0,0,0,0,0,0,0,0,0,0,0,
517,59.23,13.28,24.77,18.08,4.87,24.63,41.84,-33.13,-21.6,68.49,3.085,77.43,5.98,28.41,110.2,72.7,0,0,0,0,0,0,0,0,0,0,0,0,0,0,0,0,
518,26.83,-2.814,18.6,14.71,-7.653,4.404,43.57,-29.87,-52.6,70.34,-13.14,59.37,8.477,29.97,103.7,80.04,0,0,0,0,0,0,0,0,0,0,0,0,0,0,0,0,
519,29.03,2.634,29.88,31.67,3.097,18.33,58.75,-9.47,-12.22,75.67,0.3847,66.48,19,35.86,113.7,95.06,0,0,0,0,0,0,0,0,0,0,0,0,0,0,0,0,
520,47.27,13.96,35.11,42.16,9.078,42.3,72.94,-1.446,4.471,69.15,1.585,70.54,25.69,32.15,114.7,95.86,0,0,0,0,0,0,0,0,0,0,0,0,0,0,0,0,
521,59.56,22.04,38.65,47.47,6.849,63.47,91.23,-1.765,-6.1,58.26,10.48,69.76,27.06,23.99,111.3,87.07,0,0,0,0,0,0,0,0,0,0,0,0,0,0,0,0,
522,67.49,26.14,46.75,50.07,7.126,75.66,99.43,3.147,3.415,55.77,24.71,68.55,21.12,15.42,107.9,73.84,0,0,0,0,0,0,0,0,0,0,0,0,0,0,0,0,
523,65.57,21.34,48.1,44.48,2.963,73.05,93.07,1.81,0.0576,61.28,22.24,70.72,20.7,12.54,111.3,70.28,0,0,0,0,0,0,0,0,0,0,0,0,0,0,0,0,
524,59.72,20.03,50.74,40.96,5.121,71.08,94.54,-3.102,-14.46,69.57,20.47,76,31.57,22.31,120.3,79.22,0,0,0,0,0,0,0,0,0,0,0,0,0,0,0,0,
525,58.53,27.28,58.21,39.14,16.97,76.05,96.46,-6.57,-3.012,71.27,22.22,69.72,37.42,33.17,118.4,82.19,0,0,0,0,0,0,0,0,0,0,0,0,0,0,0,0,
526,55.45,27.95,61.36,35.43,24.06,80.53,86.46,-11.6,17.23,68.31,19.67,62.1,36.31,36.3,111,81.7,0,0,0,0,0,0,0,0,0,0,0,0,0,0,0,0,
527,53.13,23.41,64.17,33.64,31.74,87.11,80.31,-10.52,17.27,70.16,22.73,67.35,36.31,37.89,108.8,84.72,0,0,0,0,0,0,0,0,0,0,0,0,0,0,0,0,
528,59.56,22.51,65.23,27.02,42.19,94.32,78.96,-8.48,2.338,67.18,28.84,70.14,36.11,34.83,105.5,80.35,0,0,0,0,0,0,0,0,0,0,0,0,0,0,0,0,
529,68.96,21.43,62.47,23.25,43.98,99.52,79.58,-7.418,8.405,60.43,40.07,75.54,39.69,27.4,109.9,74.28,0,0,0,0,0,0,0,0,0,0,0,0,0,0,0,0,
530,78.64,25.12,68.49,39.32,45.67,110.3,95.49,6.758,43.41,67.53,59.7,96.17,48.29,29.39,125.9,76.33,0,0,0,0,0,0,0,0,0,0,0,0,0,0,0,0,
531,93.13,36.97,75.86,53.35,51.96,116.5,109.3,16.44,56.13,74.03,65.77,110.7,52.15,34.83,133.2,80.94,0,0,0,0,0,0,0,0,0,0,0,0,0,0,0,0,
532,100.5,40.9,66.5,40.97,48.49,105.8,98.94,6.438,40.04,66.2,66,115.2,55.27,34.15,135.6,91.81,0,0,0,0,0,0,0,0,0,0,0,0,0,0,0,0,
533,97.48,36.76,56.46,28.12,47.58,103.9,91.5,2.407,49.22,63.29,90.51,130.2,66.06,39.08,151.7,105.8,0,0,0,0,0,0,0,0,0,0,0,0,0,0,0,0,
534,105.2,36.24,63.14,34.44,62.45,119.3,95.03,3.125,79.6,62.84,114.5,142.7,68.25,42.42,164.1,105,0,0,0,0,0,0,0,0,0,0,0,0,0,0,0,0,
535,113,31.71,70.24,36.38,64.43,121.3,82.51,-10.76,81.54,57.67,106.6,135.4,57.21,35.24,155.7,96.99,0,0,0,0,0,0,0,0,0,0,0,0,0,0,0,0,
536,104,30.72,66.93,30.44,48.1,115.4,73.89,-13.09,62.08,68.55,92.51,125.4,55.98,40.32,143.3,96.47,0,0,0,0,0,0,0,0,0,0,0,0,0,0,0,0,
537,98.44,41.83,59.39,31.87,38.46,113.8,86.42,7.783,61.8,81.25,87.58,116.8,56.94,48.8,134.2,89.04,0,0,0,0,0,0,0,0,0,0,0,0,0,0,0,0,
538,88.06,36.39,45.95,26.56,24.51,91.58,87.67,16.07,56.75,69.76,68.96,95.9,42,33.64,116.9,69.58,0,0,0,0,0,0,0,0,0,0,0,0,0,0,0,0,
539,62.1,18.01,30.4,13.64,1.418,65.82,82.58,12.86,10.65,62.08,43.69,78.79,33.14,20.34,99.05,55.75,0,0,0,0,0,0,0,0,0,0,0,0,0,0,0,0,
540,56.34,19.82,25.45,14.12,-1.914,70.28,89.64,23.35,-11.67,69.26,41.51,75.96,33.32,22.51,91.97,44.34,0,0,0,0,0,0,0,0,0,0,0,0,0,0,0,0,
541,60.57,19,29.4,15.42,7.248,72.41,79.23,24.22,30.09,61.07,47.44,62.67,16.18,9.745,82.64,23.08,0,0,0,0,0,0,0,0,0,0,0,0,0,0,0,0,
542,36.52,-7.567,31.16,4.884,-0.8507,48.57,52.91,6.727,52.32,42.19,34.29,41.39,-6.13,-14.76,65,5.263,0,0,0,0,0,0,0,0,0,0,0,0,0,0,0,0,
543,15.94,-25.6,30.38,6.418,-11,34.93,49.06,10.04,28.32,34.91,21.39,39.05,-9.036,-22.85,58.38,2.899,0,0,0,0,0,0,0,0,0,0,0,0,0,0,0,0,
544,28.45,-17.26,33.09,21.42,-0.7504,45.82,56.75,26.06,22.12,34.25,23.44,45.03,-3.76,-18.32,64.5,4.949,0,0,0,0,0,0,0,0,0,0,0,0,0,0,0,0,
545,38.29,-10.87,31.22,18.35,4.825,49.78,48.68,18.11,33.99,31.27,20.23,37.75,-9.362,-22.08,57.57,-0.6472,0,0,0,0,0,0,0,0,0,0,0,0,0,0,0,0,
546,26.97,-19.99,22,4.07,-6.4,44.76,44.67,10.47,29.18,26.7,14.03,32.41,-17.3,-31.13,41.65,-8.387,0,0,0,0,0,0,0,0,0,0,0,0,0,0,0,0,
547,31.28,-19.24,30.74,13.95,3.761,63.65,62.67,26.58,26.05,25.93,21.85,48.85,-5.758,-23.69,46.66,-1.698,0,0,0,0,0,0,0,0,0,0,0,0,0,0,0,0,
548,60.23,0.3283,56.08,35.14,34.26,95.33,76.83,36.76,47.85,32.25,32.63,68.36,12.83,-8.568,61.6,14.61,0,0,0,0,0,0,0,0,0,0,0,0,0,0,0,0,
549,71.85,13.21,65.21,38.6,40.45,104.6,78.44,35.58,57.05,35.23,35.09,65.06,9.899,-13.21,58.7,15.66,0,0,0,0,0,0,0,0,0,0,0,0,0,0,0,0,
550,64.62,16.1,66.97,39.89,32.4,101.8,91.48,47.2,32.41,27.6,37.88,57.31,0.7824,-24.73,52.84,8.227,0,0,0,0,0,0,0,0,0,0,0,0,0,0,0,0,
551,71.77,24.33,80,51.38,41.72,103.6,107.9,61.26,43.59,24.78,49.82,70.65,9.689,-19.98,62.47,16.88,0,0,0,0,0,0,0,0,0,0,0,0,0,0,0,0,
552,82,34.48,82.61,58.5,48.38,100.8,107,61.76,88.71,35.77,60.43,84.67,21.93,-10.03,70.98,29.42,0,0,0,0,0,0,0,0,0,0,0,0,0,0,0,0,
553,75.8,37.62,63.33,52.77,31.14,87.86,95.88,58.12,69.13,43.63,50.5,78.13,20.95,-8.249,63.97,23.76,0,0,0,0,0,0,0,0,0,0,0,0,0,0,0,0,
554,64.89,27.8,38.87,35.18,6.931,69.65,82.54,50.45,23.58,45.11,31.73,65.08,11.89,-12.51,48.65,6.652,0,0,0,0,0,0,0,0,0,0,0,0,0,0,0,0,
555,57.01,15.18,22.06,19.88,-7.686,57.19,76.15,36.94,31.84,53.33,21.91,53.89,4.102,-16.32,34.03,-5.811,0,0,0,0,0,0,0,0,0,0,0,0,0,0,0,0,
556,48.63,17.9,13.19,12.64,-12.24,52.62,77.63,30.51,34.39,57.27,7.891,38.6,-0.0462,-12.74,23.13,-8.272,0,0,0,0,0,0,0,0,0,0,0,0,0,0,0,0,
557,36.28,20.57,5.711,-2.147,-14.6,42.46,66.66,30.92,11.14,50.61,-8.62,21.72,-7.38,-7.89,12.97,-9.294,0,0,0,0,0,0,0,0,0,0,0,0,0,0,0,0,
558,22.11,8.358,-2.368,-15.27,-25.51,30.9,53.15,29.05,11.77,51.99,-12.27,9.325,-19.69,-12.56,0.6297,-18.67,0,0,0,0,0,0,0,0,0,0,0,0,0,0,0,0,
559,16.83,-0.9545,-2.742,-9.473,-31.45,34.37,56.79,25.59,19.4,54.24,-10.71,7.712,-26.6,-21.07,-4.736,-30.68,0,0,0,0,0,0,0,0,0,0,0,0,0,0,0,0,
560,21.89,-1.619,7.657,-0.4015,-23.58,43.71,57.64,21.24,15.32,40.85,-10.46,15.52,-23.82,-27.1,4.164,-35.64,0,0,0,0,0,0,0,0,0,0,0,0,0,0,0,0,
561,27.81,-0.6295,11.61,1.011,-29.52,45.39,56.65,18.74,14.88,32.01,-9.377,23.98,-16.38,-30.91,17.61,-31.62,0,0,0,0,0,0,0,0,0,0,0,0,0,0,0,0,
562,36.46,4.111,9.086,5.225,-29.64,53.17,74.22,24.36,27.3,39.87,2.245,36.2,-8.043,-26.95,27.35,-21.4,0,0,0,0,0,0,0,0,0,0,0,0,0,0,0,0,
563,49.55,10.07,23.04,14.71,-1.495,65.37,84.55,33.5,49.24,45.79,23.56,43.81,-4.973,-19.48,31.49,-15.58,0,0,0,0,0,0,0,0,0,0,0,0,0,0,0,0,
564,48.62,15.33,28.79,14.79,-5.831,57.49,73.19,33.65,52.43,47.32,24.13,30.66,-8.794,-19.15,25.19,-22.38,0,0,0,0,0,0,0,0,0,0,0,0,0,0,0,0,
565,34.29,21.37,13.24,4.478,-24.88,48.78,67.43,26.11,37.71,53.23,12.34,18.27,-9.263,-18.97,12.9,-32.95,0,0,0,0,0,0,0,0,0,0,0,0,0,0,0,0,
566,30.04,19.28,18.34,2.25,-7.859,53.57,61.68,24.28,28.63,52.04,15.96,18.18,-4.182,-13.94,6.782,-33.23,0,0,0,0,0,0,0,0,0,0,0,0,0,0,0,0,
567,27.2,9.111,10.29,-4.876,-36.09,40.26,46.24,23.24,10.6,42.41,16.91,14.01,1.941,-9.23,12.84,-23.1,0,0,0,0,0,0,0,0,0,0,0,0,0,0,0,0,
568,21.85,9.125,-34.21,-26.9,-83.36,34.38,50.46,12.43,8.048,39.5,25.82,22.57,8.784,-6.186,26.02,-19.13,0,0,0,0,0,0,0,0,0,0,0,0,0,0,0,0,
569,37.22,16.14,-17.76,-20.25,-24.15,70.39,67.57,6.83,57.69,33.9,49.61,43.31,4.409,-15.28,27.36,-33.29,0,0,0,0,0,0,0,0,0,0,0,0,0,0,0,0,
570,55.46,10.68,57.32,18.88,60.82,100.4,70.29,11.12,92.4,17.5,40.06,39.56,-14.56,-36.93,11.18,-53.56,0,0,0,0,0,0,0,0,0,0,0,0,0,0,0,0,
571,52.44,-0.6164,85.94,35.23,79.66,103.3,72.61,5.598,74.45,11.02,17.77,24.55,-26.1,-45.26,0.3228,-60.51,0,0,0,0,0,0,0,0,0,0,0,0,0,0,0,0,
572,45.3,-10.48,82.01,21.47,105,106.6,70.13,-10.67,78.55,18.47,27.82,25.5,-24.68,-35.03,6.612,-49.44,0,0,0,0,0,0,0,0,0,0,0,0,0,0,0,0,
573,48.56,-21.34,100.3,12.96,159.7,119.3,49.86,-27.12,115,25.61,39.38,30.83,-22.43,-26.08,16.36,-34.49,0,0,0,0,0,0,0,0,0,0,0,0,0,0,0,0,
574,61.38,-23.42,117,12.68,194.6,133.4,35.27,-43.38,124.1,29.45,39.16,27.11,-24.14,-26.62,12.64,-38,0,0,0,0,0,0,0,0,0,0,0,0,0,0,0,0,
575,57.03,-29.88,99.45,-1.799,186.4,117,24.25,-54.3,115.7,28.28,31.66,9.084,-31.46,-31.1,-3.448,-54.27,0,0,0,0,0,0,0,0,0,0,0,0,0,0,0,0,
576,26.16,-47.26,71.56,-18.89,154.8,84.11,12.23,-53.46,106.7,25.79,13.23,-5.343,-31.44,-26.97,-4.452,-51.01,0,0,0,0,0,0,0,0,0,0,0,0,0,0,0,0,
577,23.22,-40.62,74.02,-11,146.5,91.03,22.05,-47.05,84.84,28.15,20.66,5.407,-17.14,-15.5,17.45,-29.37,0,0,0,0,0,0,0,0,0,0,0,0,0,0,0,0,
578,46.96,-24.31,80,-2.535,148.5,104.7,31.77,-46.95,84.49,27.21,48.81,17.78,-12.47,-14.81,29.64,-20.64,0,0,0,0,0,0,0,0,0,0,0,0,0,0,0,0,
579,42.66,-32.91,62.48,-14.08,131.2,90.88,26.88,-52.21,106.3,19.97,50.34,19.84,-17.73,-19.8,26.3,-23.5,0,0,0,0,0,0,0,0,0,0,0,0,0,0,0,0,
580,39.96,-27.68,62.8,-16.31,127.3,96.33,40.48,-51.77,102.5,17.13,52.88,33.47,-3.665,-11.85,35.12,-12.1,0,0,0,0,0,0,0,0,0,0,0,0,0,0,0,0,
581,69.38,5.467,77.69,-7.545,139.6,115.9,60.95,-46.29,99.83,22.99,75,50.43,24.2,2.583,51.11,9.457,0,0,0,0,0,0,0,0,0,0,0,0,0,0,0,0,
582,88.38,19.84,75.07,-3.686,138.2,115.3,65.95,-40.3,117.7,28.51,65.49,51.39,37.83,7.669,49.43,16.68,0,0,0,0,0,0,0,0,0,0,0,0,0,0,0,0,
583,82.91,16.94,77.55,3.405,136.5,116.2,74.76,-34.12,118,27.54,36.87,45.08,34.91,1.264,37.74,10.72,0,0,0,0,0,0,0,0,0,0,0,0,0,0,0,0,
584,78.46,25.06,87.02,5.89,146.2,126.3,81.58,-32.84,118.9,24.91,38.14,42.48,26.78,-10.79,31.99,5.948,0,0,0,0,0,0,0,0,0,0,0,0,0,0,0,0,
585,81.56,28.61,85.4,-2.454,148.2,127.3,71.71,-33.57,127.6,16.61,39.9,38.69,18,-20.04,25.42,0.7012,0,0,0,0,0,0,0,0,0,0,0,0,0,0,0,0,
586,82.76,19.67,87.49,-3.304,141.1,127.9,69.81,-28.19,114.8,8.492,33.78,36.7,20.32,-15.93,24.79,-0.1096,0,0,0,0,0,0,0,0,0,0,0,0,0,0,0,0,
587,87.87,28.8,95.81,6.571,146.5,144.2,90.38,-19.81,123.5,22.35,61.59,54.51,38.87,-2.033,44.4,10.13,0,0,0,0,0,0,0,0,0,0,0,0,0,0,0,0,
588,105.6,51.15,95.66,12.24,154.5,158,109.3,-13.73,155,33.6,85.45,75.29,46.55,1.451,59.53,12.28,0,0,0,0,0,0,0,0,0,0,0,0,0,0,0,0,
589,114.7,49.5,92.05,10.73,143.7,154.9,110.5,-12.05,137.1,18.88,66.15,69.1,35.27,-3.234,53.16,0.4901,0,0,0,0,0,0,0,0,0,0,0,0,0,0,0,0,
590,110.3,38.22,97.49,13.41,137.9,158.4,109.3,-12.15,109.6,20.2,52.91,61.99,34.96,2.214,45.68,-5.472,0,0,0,0,0,0,0,0,0,0,0,0,0,0,0,0,
591,115,42.33,101.1,17.55,141.5,160.4,110,-8.6,126.9,40.24,53.93,65.24,39.49,6.922,36.2,-8.012,0,0,0,0,0,0,0,0,0,0,0,0,0,0,0,0,
592,113.1,40.75,89.92,11.67,128,136.3,100.1,-4.125,120.7,39.79,37.61,48.54,25.63,1.407,20.7,-16.95,0,0,0,0,0,0,0,0,0,0,0,0,0,0,0,0,
593,92.39,26.02,80.62,4.939,116.6,121.1,88.78,-4.235,88.86,34.7,26.13,34.57,14.35,1.1,19.25,-20.63,0,0,0,0,0,0,0,0,0,0,0,0,0,0,0,0,
594,81.2,13.38,77.47,3.6,120.1,130.7,86.05,-6.617,106.4,35.81,32.24,42.51,14,3.165,20.99,-18.23,0,0,0,0,0,0,0,0,0,0,0,0,0,0,0,0,
595,79.96,6.902,65.18,0.3425,113.4,128.1,82.76,-4.029,129.8,28.59,37.43,31.23,0.8885,-5.612,7.488,-25.4,0,0,0,0,0,0,0,0,0,0,0,0,0,0,0,0,
596,69.79,6.456,53.43,-3.741,103.6,114.7,80.78,1.677,111.8,30.4,42.14,7.32,-14.75,-15.65,0.0459,-38.54,0,0,0,0,0,0,0,0,0,0,0,0,0,0,0,0,
597,61.19,7.487,52.79,-4.421,109.3,115.3,87.51,0.8871,111.9,37.98,44.32,8.226,-9.149,-15.97,3.776,-42.58,0,0,0,0,0,0,0,0,0,0,0,0,0,0,0,0,
598,62.05,13.6,58.7,1.161,117.2,125,95.13,-0.6698,126.5,28.57,35.86,11.2,2.837,-13.06,-2.076,-43.53,0,0,0,0,0,0,0,0,0,0,0,0,0,0,0,0,
599,59.02,27.95,66.42,6.849,115.7,130.5,93.04,3.037,115.9,19.81,30.53,-0.4886,1.489,-16.87,-10.8,-52.23,0,0,0,0,0,0,0,0,0,0,0,0,0,0,0,0,
600,52.31,28,67.77,2.69,112.6,128.6,82.36,-0.7246,115.5,15.82,38.68,-3.755,-7.263,-27.66,-12.22,-61.69,0,0,0,0,0,0,0,0,0,0,0,0,0,0,0,0,
601,54.05,7.795,65.24,-3.841,112.7,122.5,71.48,-14.48,119,-4.993,41.76,-0.1737,-16.39,-40.36,-18.08,-69.4,0,0,0,0,0,0,0,0,0,0,0,0,0,0,0,0,
602,58.41,-7.596,64.48,-7.082,114.5,114.1,65.38,-24.3,100.5,-22.14,33.86,0.6477,-21.18,-48.22,-25.07,-76.06,0,0,0,0,0,0,0,0,0,0,0,0,0,0,0,0,
603,59.55,-5.829,60.8,-7.484,119.2,108,68.96,-20.15,110.4,-14.13,38.81,11.16,-10.85,-40.89,-18.29,-67.52,0,0,0,0,0,0,0,0,0,0,0,0,0,0,0,0,
604,67.51,8.461,56.97,-2.946,121.8,111.9,80.22,-7.435,146.7,-5.572,53.04,28.23,8.022,-22.33,-2.307,-46.04,0,0,0,0,0,0,0,0,0,0,0,0,0,0,0,0,
605,82.08,22.63,56.26,-2.096,117.5,120.6,82.66,-1.298,149.4,-3.037,54.54,36.15,17.24,-11.16,9.378,-33.22,0,0,0,0,0,0,0,0,0,0,0,0,0,0,0,0,
606,90.83,25.26,56.3,-3.821,112.3,123.3,74.18,3.071,125.8,7.248,51.3,36.61,18.43,-8.546,9.819,-30.64,0,0,0,0,0,0,0,0,0,0,0,0,0,0,0,0,
607,88.73,22.17,55.14,-2.056,106.6,119.4,66.18,11.92,108.8,10.6,47.47,34.35,18.99,-7.334,4.201,-31.58,0,0,0,0,0,0,0,0,0,0,0,0,0,0,0,0,
608,82.54,19.23,48.5,-7.17,97.61,111.7,55.33,8.686,107.1,6.062,39.18,29.81,16.8,-12.15,3.476,-37.22,0,0,0,0,0,0,0,0,0,0,0,0,0,0,0,0,
609,78.04,11.85,43.9,-13.32,92.55,103,44.94,-1.788,116.4,9.601,39.8,25.82,14.65,-18.39,2.12,-40.79,0,0,0,0,0,0,0,0,0,0,0,0,0,0,0,0,
610,71.51,5.984,51.78,-7.605,98.77,104.9,50.77,-1.408,117.1,8.519,40.98,18.68,13.9,-18.75,-9.514,-41.48,0,0,0,0,0,0,0,0,0,0,0,0,0,0,0,0,
611,63.55,8.063,59.53,-0.582,108.6,117,63.05,2.224,103.9,0.6317,25.39,4.023,6.135,-23.83,-24.03,-50.29,0,0,0,0,0,0,0,0,0,0,0,0,0,0,0,0,
612,54.16,3.131,54.82,0.8709,102.7,116.4,62.05,3.977,94.96,-1.624,12.28,-11.95,-8.347,-36.53,-33.77,-63.66,0,0,0,0,0,0,0,0,0,0,0,0,0,0,0,0,
613,43.59,-8.781,55.63,7.275,91.8,109.7,62.15,12.27,94.82,-5.608,15.32,-19.52,-14.82,-43.44,-38.88,-70.8,0,0,0,0,0,0,0,0,0,0,0,0,0,0,0,0,
614,48,-2.313,75.67,22.8,100.2,121.1,80.19,28.82,89.17,-4.787,18.94,-16.07,-7.088,-41.16,-42.07,-71.7,0,0,0,0,0,0,0,0,0,0,0,0,0,0,0,0,
615,61.6,13.68,88.22,30.55,107.1,129.4,94.1,41.26,86.8,7.739,33.11,-3.216,8.013,-30.42,-34.49,-59.7,0,0,0,0,0,0,0,0,0,0,0,0,0,0,0,0,
616,68.42,22.29,85.15,26.82,108.2,130.6,96.77,43.79,133.6,20.1,87.73,26.86,33.24,-2.858,10.49,-22.76,0,0,0,0,0,0,0,0,0,0,0,0,0,0,0,0,
617,91.69,47.49,97.97,36.31,131.7,157.4,114.6,57.06,204.7,37.47,150.5,69.85,65.29,32.2,74.58,18.99,0,0,0,0,0,0,0,0,0,0,0,0,0,0,0,0,
618,125.7,76.46,111.2,48.78,147.8,177.8,130.2,71.8,195.2,43.68,148.8,81.81,70,37.4,80.78,18.35,0,0,0,0,0,0,0,0,0,0,0,0,0,0,0,0,
619,118.5,60.32,91.18,33.25,120.4,149.7,109.6,50.51,117.8,11.14,85.62,38.51,33.96,-0.2495,13.71,-33.17,0,0,0,0,0,0,0,0,0,0,0,0,0,0,0,0,
620,70.03,20.24,61.28,8.909,77.63,107.6,81.41,18.73,78.47,-21.29,25.72,-14.43,-1.639,-40,-50.02,-85.17,0,0,0,0,0,0,0,0,0,0,0,0,0,0,0,0,
621,29.52,7.394,43.8,2.274,52.66,86.26,75.68,15.42,74.52,-24.66,-1.183,-31.58,-6.231,-47.16,-65.65,-97.36,0,0,0,0,0,0,0,0,0,0,0,0,0,0,0,0,
622,25.35,18.51,40.29,7.989,56.43,86.77,79.09,22.72,65.32,-28.46,-2.901,-25.06,5.202,-35.66,-60.97,-85.08,0,0,0,0,0,0,0,0,0,0,0,0,0,0,0,0,
623,39.52,31.13,55.27,18.41,72.29,102.2,86.21,29.78,66.24,-27.8,7.483,-19.58,14.38,-25.21,-57.37,-77.87,0,0,0,0,0,0,0,0,0,0,0,0,0,0,0,0,
624,38.77,38.24,67.03,24.09,68.31,110.6,92.27,38.72,61.24,-14.41,14.99,-18.26,13.63,-20.62,-51.14,-80.56,0,0,0,0,0,0,0,0,0,0,0,0,0,0,0,0,
625,27.39,34.67,58.18,14.69,54.32,102,80.62,37.98,42.35,-18.65,14.99,-20.98,0.2494,-27.66,-49.04,-85.09,0,0,0,0,0,0,0,0,0,0,0,0,0,0,0,0,
626,24.58,22.32,46.13,-2.195,56.56,93.19,63.47,35.83,57.94,-24.73,19.87,-25.58,-8.319,-35.7,-50.4,-83.6,0,0,0,0,0,0,0,0,0,0,0,0,0,0,0,0,
627,26.69,17.65,43.08,-9.2,64.24,92.79,57.82,39.8,90.37,-8.231,33.35,-26.03,-0.4712,-29.45,-46.06,-76.99,0,0,0,0,0,0,0,0,0,0,0,0,0,0,0,0,
628,26.65,22.51,43.99,-6.888,62.97,93.4,52.93,37.8,85.28,-0.753,37.2,-25.28,4.985,-20.08,-46.58,-76.03,0,0,0,0,0,0,0,0,0,0,0,0,0,0,0,0,
629,23.51,21.61,43.44,-6.32,63.1,95.26,52.45,35.71,79.34,-5.969,30.24,-22.7,1.833,-15.65,-50.71,-78.85,0,0,0,0,0,0,0,0,0,0,0,0,0,0,0,0,
630,22.44,20.84,42.8,-2.098,67.44,100.7,62.73,40.39,90.99,-3.556,28.49,-19.92,0.8478,-12.85,-48.15,-78.14,0,0,0,0,0,0,0,0,0,0,0,0,0,0,0,0,
631,26.91,27.59,43.56,4.689,64.73,98.57,60.66,38.51,69.17,-7.833,24.75,-30.33,-3.66,-18.71,-53.44,-83.21,0,0,0,0,0,0,0,0,0,0,0,0,0,0,0,0,
632,29.11,25.04,41.3,0.1965,62.73,89.77,45.88,32.41,46.51,-15.71,19.81,-40.77,-13.22,-29.16,-62.98,-94.04,0,0,0,0,0,0,0,0,0,0,0,0,0,0,0,0,
633,30,13.16,37.02,-10.46,67.46,88.9,37.75,30.19,72.21,-12.68,26.41,-35.68,-20.9,-35.47,-62.17,-99.02,0,0,0,0,0,0,0,0,0,0,0,0,0,0,0,0,
634,33.16,9.377,35.07,-18.42,65.34,90.82,30.65,21.52,88.18,-12.92,27.62,-36.33,-28.01,-44.12,-65.76,-102.8,0,0,0,0,0,0,0,0,0,0,0,0,0,0,0,0,
635,30.78,10.93,33.09,-23.1,61.1,85.02,24.74,10.44,67.21,-22.58,17.53,-46.23,-32.39,-52.08,-73.07,-109.3,0,0,0,0,0,0,0,0,0,0,0,0,0,0,0,0,
636,16.24,3.117,19.03,-29.99,53.48,64.94,20.08,5.55,52.19,-34.68,8.953,-56.63,-37.59,-54.56,-76.8,-115.1,0,0,0,0,0,0,0,0,0,0,0,0,0,0,0,0,
637,-11.96,-14.49,-11.04,-48.86,28.62,30.96,2.47,-2.724,48.55,-39.68,-1.996,-75.6,-44.93,-56.24,-86.67,-117.3,0,0,0,0,0,0,0,0,0,0,0,0,0,0,0,0,
638,-34.85,-24.56,-28.98,-64.16,13.54,11.71,-16.56,-7.689,45.37,-34.42,-3.531,-82.23,-41.44,-52.2,-86.74,-107.1,0,0,0,0,0,0,0,0,0,0,0,0,0,0,0,0,
639,-32,-25.12,-23.75,-64.68,22.44,16.54,-27.69,-7.346,49.01,-40.58,15.47,-67.23,-37.69,-44.94,-73.21,-92.7,0,0,0,0,0,0,0,0,0,0,0,0,0,0,0,0,
640,-22.29,-32.93,-22.06,-65.74,29.31,18.25,-36.95,-16.43,63.38,-56.19,30.11,-61.42,-44.44,-43.58,-71.34,-92.12,0,0,0,0,0,0,0,0,0,0,0,0,0,0,0,0,
641,-18.63,-36.22,-21.35,-59.88,35.61,18.77,-30.07,-12.6,69.94,-53.45,27.23,-59.9,-41.91,-42.13,-71.9,-96.99,0,0,0,0,0,0,0,0,0,0,0,0,0,0,0,0,
642,-7.5,-21.3,-12.4,-48.76,42.28,26.89,-16.5,8.745,49.39,-44.5,21.8,-52.95,-36.21,-43.55,-67.43,-101.8,0,0,0,0,0,0,0,0,0,0,0,0,0,0,0,0,
643,-4.661,-14.88,-17.76,-58.4,29.48,19.33,-24.79,3.35,41.09,-49.34,23.05,-61.99,-41.65,-50.8,-74.08,-107.4,0,0,0,0,0,0,0,0,0,0,0,0,0,0,0,0,
644,-21.08,-23.67,-28.88,-70.2,14.81,2.732,-35.4,-15.2,60.56,-53.97,25.46,-70.59,-37,-46.21,-77.41,-98.77,0,0,0,0,0,0,0,0,0,0,0,0,0,0,0,0,
645,-21.24,-20.91,-19.15,-62.84,23.29,11.89,-29.55,-9.091,55.4,-46.1,29.7,-55.64,-23.93,-33.44,-65.06,-83.16,0,0,0,0,0,0,0,0,0,0,0,0,0,0,0,0,
646,-0.6948,-12.12,-7.692,-60.89,31.93,29.04,-29.79,-7.881,50.01,-36.66,45.21,-43.06,-23.17,-31.47,-53.38,-78.27,0,0,0,0,0,0,0,0,0,0,0,0,0,0,0,0,
647,3.402,-13.73,-14.57,-68.46,19.16,21.78,-36.64,-21.49,83.4,-39.83,56.92,-45.12,-19.74,-29.72,-47.46,-73.66,0,0,0,0,0,0,0,0,0,0,0,0,0,0,0,0,
648,-4.159,-9.921,-17.44,-62.59,10.36,16.3,-27.46,-12.98,94.6,-44.88,50.12,-43.97,-6.571,-20.55,-46.59,-69.27,0,0,0,0,0,0,0,0,0,0,0,0,0,0,0,0,
649,-5.551,1.395,-7,-49.05,16.82,24.63,-13.08,6.488,72.36,-40.68,40.54,-44.13,-3.353,-19.69,-53.24,-73.9,0,0,0,0,0,0,0,0,0,0,0,0,0,0,0,0,
650,-14.96,1.69,-9.631,-48.07,11.17,16.9,-10.6,9.363,61.15,-40.03,30.02,-53.23,-3.113,-23.57,-58.46,-71.55,0,0,0,0,0,0,0,0,0,0,0,0,0,0,0,0,
651,-21.02,5.199,-21.45,-52.74,0.6001,11.16,-2.372,15.7,51.78,-39.98,21.23,-54.2,11.67,-17.84,-55.55,-58.87,0,0,0,0,0,0,0,0,0,0,0,0,0,0,0,0,
652,-3.622,29.16,-13.25,-43.84,9.493,33.25,22.27,35.96,55.93,-29.37,32.6,-41.71,28.32,-11.06,-48.56,-53.68,0,0,0,0,0,0,0,0,0,0,0,0,0,0,0,0,
653,14.96,50.66,0.6417,-27.13,18.01,52.71,45.48,46.1,80.04,-17.63,47.21,-25.9,35.64,-9.054,-36.85,-50.98,0,0,0,0,0,0,0,0,0,0,0,0,0,0,0,0,
654,25.49,52.36,0.7548,-20.09,15.08,57.05,56.48,43.8,72.34,-9.529,52.16,-9.178,39.56,-3.284,-19.72,-38.59,0,0,0,0,0,0,0,0,0,0,0,0,0,0,0,0,
655,41.39,47.21,7.273,-14.69,19.14,61.9,61.46,49.59,59.17,-5.126,67.03,0.4017,40.79,4.161,-11.63,-28.82,0,0,0,0,0,0,0,0,0,0,0,0,0,0,0,0,
656,50.14,48.99,18.62,-2.731,26.63,60.08,66.41,58.19,94.36,-3.574,81.19,-1.378,41.82,7.491,-18.02,-30.21,0,0,0,0,0,0,0,0,0,0,0,0,0,0,0,0,
657,40.17,55.22,6.264,-9.091,22.8,44.67,60.62,49.06,110.8,-1.527,76.14,-4.943,42.6,6.342,-20.14,-33.73,0,0,0,0,0,0,0,0,0,0,0,0,0,0,0,0,T1
658,25.27,51.68,-20.43,-33.95,8.017,25.91,38.64,36.53,75.38,-7.846,70.16,-11.26,34.24,0.7937,-17.17,-40.28,0,0,0,0,0,0,0,0,0,0,0,0,0,0,0,0,
659,15.29,37.87,-32.55,-41.28,-6.879,13.74,24.27,40.44,60.95,-19.88,71.93,-21.49,20.11,-7.01,-29.63,-56.47,0,0,0,0,0,0,0,0,0,0,0,0,0,0,0,0,
660,4.761,25.24,-31.11,-38.39,-8.91,8.951,20.98,37.96,70.36,-24.63,62.42,-32.78,1.387,-22.22,-55.25,-80.05,0,0,0,0,0,0,0,0,0,0,0,0,0,0,0,0,
661,-9.639,11.01,-32.11,-46.46,-6.633,4.925,9.543,20.58,63.86,-28.29,37.79,-51.48,-24.56,-44,-76.62,-106.5,0,0,0,0,0,0,0,0,0,0,0,0,0,0,0,0,
662,-22.67,-5.144,-38.01,-51.1,-12.47,0.4823,1.086,15.08,53.47,-32.22,17.8,-68.46,-37.13,-50.83,-86.35,-121.1,0,0,0,0,0,0,0,0,0,0,0,0,0,0,0,0,
663,-29.53,-8.363,-33.82,-50.57,-9.346,1.471,5.15,20.85,44.44,-24.65,15.72,-69.35,-25.13,-36.42,-84.33,-110.1,0,0,0,0,0,0,0,0,0,0,0,0,0,0,0,0,
664,-27.63,8.149,-21.7,-51.69,-6.62,2.929,8.761,24.86,40.98,-10.43,22.56,-67.71,-10.5,-21.41,-83.8,-95.97,0,0,0,0,0,0,0,0,0,0,0,0,0,0,0,0,
665,-27.92,22.33,-33.34,-60.51,-28.43,-9.272,1.2,22.61,38.77,-11.91,12.46,-79.82,-15.96,-25.41,-102.7,-109,0,0,0,0,0,0,0,0,0,0,0,0,0,0,0,0,
666,-45.45,5.77,-58.92,-81.6,-42.34,-30.76,-20.07,9.963,2.529,-29.84,-17.95,-96.95,-36.76,-45.51,-128.3,-130.9,0,0,0,0,0,0,0,0,0,0,0,0,0,0,0,0,
667,-60.85,-15.92,-70.42,-85.37,-56.61,-47.89,-28.55,12.08,-31.22,-33.06,-26.32,-101,-43.96,-54.18,-130.7,-127.7,0,0,0,0,0,0,0,0,0,0,0,0,0,0,0,0,
668,-57.92,-9.352,-92.48,-76.68,-100.9,-61.94,-14.3,30.52,0.5269,-24.32,-3.634,-95.5,-37.29,-48.89,-117.7,-111.4,0,0,0,0,0,0,0,0,0,0,0,0,0,0,0,0,
669,-57.4,-12.17,-106.9,-91.03,-92.06,-64.11,-18.78,21.8,43.02,-33.96,0.8502,-96.88,-43.63,-56.03,-116.8,-107.9,0,0,0,0,0,0,0,0,0,0,0,0,0,0,0,0,
670,-56.79,-34.95,-73.03,-95.63,-23.44,-44.79,-34.68,1.854,37.88,-44.53,-10.29,-93.88,-45.24,-61.62,-115.4,-104,0,0,0,0,0,0,0,0,0,0,0,0,0,0,0,0,
671,-34.94,-24.99,-43.65,-73.48,2.968,-17.85,-18.23,7.984,44.23,-38.91,8.051,-69.58,-23.43,-44.62,-91,-88.22,0,0,0,0,0,0,0,0,0,0,0,0,0,0,0,0,
672,-6.242,2.111,-37.07,-59.46,26.55,7.96,2.533,17.2,82.85,-38.07,34.59,-43.98,-12.32,-31.29,-67.02,-82.58,0,0,0,0,0,0,0,0,0,0,0,0,0,0,0,0,
673,2.889,-5.774,-19.19,-51.76,63.47,13.29,-8.776,15.85,74.1,-39.84,31.74,-42.21,-19.27,-32.42,-69.65,-90.54,0,0,0,0,0,0,0,0,0,0,0,0,0,0,0,0,
674,-12.88,-26,-30.94,-55.02,24.32,-22.34,-31.54,12.19,27.42,-35.68,20.83,-58.31,-18.79,-30.37,-85.49,-92.82,0,0,0,0,0,0,0,0,0,0,0,0,0,0,0,0,
675,-38.63,-28.58,-73.54,-82.4,-25.01,-61.58,-50.83,4.386,25.2,-39.38,17.48,-72.25,-22.04,-29.97,-96.52,-94.18,0,0,0,0,0,0,0,0,0,0,0,0,0,0,0,0,
676,-57.04,-34.05,-88.15,-106.5,-15.7,-69.87,-67.99,-0.2951,45.44,-49.29,11.08,-76.79,-37.97,-37.15,-101.8,-102,0,0,0,0,0,0,0,0,0,0,0,0,0,0,0,0,
677,-63.29,-47.64,-84.88,-114.5,-15.32,-62.28,-71.33,-8.454,47.15,-53.07,12.35,-77.54,-43.79,-41.9,-102.2,-101.7,0,0,0,0,0,0,0,0,0,0,0,0,0,0,0,0,
678,-56.38,-46.35,-79.74,-110.3,-15.13,-48.19,-58.2,-25.89,46.39,-52.47,20.18,-76.11,-39.88,-43.73,-101.2,-95.67,0,0,0,0,0,0,0,0,0,0,0,0,0,0,0,0,
679,-40.44,-31.91,-63.75,-93.05,11.29,-30.31,-41.51,-27.3,42.38,-52.45,16.61,-72.19,-41.39,-44.73,-104.1,-99.79,0,0,0,0,0,0,0,0,0,0,0,0,0,0,0,0,
680,-22.97,-20.53,-46.79,-75.89,23.51,-13.31,-25.89,-12.83,53.29,-51.48,17.65,-68.54,-38.95,-40.98,-103.7,-100.5,0,0,0,0,0,0,0,0,0,0,0,0,0,0,0,0,
681,-7.713,-9.71,-31.31,-62.54,27.86,4.013,-9.684,-6.01,80.25,-47.91,30.98,-60.6,-28.49,-34.18,-93.07,-83.02,0,0,0,0,0,0,0,0,0,0,0,0,0,0,0,0,
682,-3.214,-1.708,-27.55,-54.26,33.51,10.74,-1.638,-6.612,70.88,-45.67,30.6,-52.64,-24.4,-29.32,-84.04,-66.24,0,0,0,0,0,0,0,0,0,0,0,0,0,0,0,0,
683,-14.39,-11.56,-43.85,-64.7,19.49,-2.741,-12.99,-13.59,41.55,-49.88,9.819,-64.86,-29.82,-30.04,-86.91,-64.85,0,0,0,0,0,0,0,0,0,0,0,0,0,0,0,0,
684,-35.91,-30.94,-60.79,-83.67,-4.421,-25.62,-29.87,-22.7,24.76,-59.23,-18.17,-86.62,-34.09,-33.74,-87.64,-62.88,0,0,0,0,0,0,0,0,0,0,0,0,0,0,0,0,
685,-53.25,-32.86,-68.31,-89.18,-16.12,-37.51,-27.74,-20.46,-0.5105,-62.19,-34.48,-87.85,-27.36,-32.12,-73.91,-48.87,0,0,0,0,0,0,0,0,0,0,0,0,0,0,0,0,
686,-53.91,-18.62,-67.33,-89.88,-15.3,-37.23,-19.34,-19.3,-15.5,-54.36,-31.05,-85.2,-15.32,-29.09,-64.47,-37.88,0,0,0,0,0,0,0,0,0,0,0,0,0,0,0,0,
687,-52.24,-10.45,-63.67,-97.16,-19.13,-38.81,-18.54,-24.27,-6.523,-49.62,-26.46,-93.73,-7.827,-28.96,-71.48,-36.96,0,0,0,0,0,0,0,0,0,0,0,0,0,0,0,0,
688,-51.24,-2.864,-60.16,-89.95,-20.26,-30.61,-4.588,-15.09,6.374,-50.88,-18.13,-83.28,1.702,-24.29,-73.51,-34.14,0,0,0,0,0,0,0,0,0,0,0,0,0,0,0,0,
689,-35.03,10.97,-47.13,-67.35,-6.258,-14.19,9.477,-3.07,26.39,-51.65,0.5758,-66.14,8.588,-22.85,-65.81,-34.58,0,0,0,0,0,0,0,0,0,0,0,0,0,0,0,0,
690,-24.91,14.73,-34.42,-58.44,-4.388,-15.6,3.873,-0.3264,28.16,-50.62,-1.655,-75.02,5.513,-27.73,-67.52,-43.85,0,0,0,0,0,0,0,0,0,0,0,0,0,0,0,0,
691,-29.35,18.53,-28.78,-52.4,-12.75,-17.55,9.576,10.18,-1.536,-38.26,-21.04,-80.18,9.34,-24.92,-75.76,-50.03,0,0,0,0,0,0,0,0,0,0,0,0,0,0,0,0,
692,-24.99,27.94,-23.93,-40.37,-9.172,-13.4,17.45,13.66,-5.011,-29.65,-24.09,-72.82,12.52,-28.6,-80.53,-60.5,0,0,0,0,0,0,0,0,0,0,0,0,0,0,0,0,
693,-27.01,16.85,-31.03,-43.97,-11.56,-27.83,0.4208,-0.0258,19.95,-47.45,-22.13,-81.91,2.336,-42.4,-81.48,-71.99,0,0,0,0,0,0,0,0,0,0,0,0,0,0,0,0,
694,-41.41,3.473,-36.27,-42.82,-13.24,-34.84,-3.24,0.5781,16.86,-56.78,-22.24,-89.11,7.423,-34.71,-71.09,-57.66,0,0,0,0,0,0,0,0,0,0,0,0,0,0,0,0,
695,-40.37,13.1,-26.32,-27.32,-1.26,-21.21,11.09,9.825,4.105,-41.92,-9.269,-80.98,28.32,-18.29,-51.78,-36.07,0,0,0,0,0,0,0,0,0,0,0,0,0,0,0,0,
696,-28.71,22.67,-28.97,-29.81,-0.8425,-20.83,9.095,8.04,11.73,-41.98,-2.26,-79.27,35.47,-20.31,-41.53,-35.56,0,0,0,0,0,0,0,0,0,0,0,0,0,0,0,0,
697,-21.95,29.86,-39.59,-40.17,-5.975,-27.91,6.199,9.888,1.989,-50.85,-13.33,-81.53,33.2,-20.44,-45.88,-43.05,0,0,0,0,0,0,0,0,0,0,0,0,0,0,0,0,
698,-19.75,39.39,-42.66,-46.07,-1.777,-25.38,9.516,7.299,-16.76,-44.04,-12.51,-80.07,32.42,-11.77,-53.23,-52.05,0,0,0,0,0,0,0,0,0,0,0,0,0,0,0,0,
699,-20.92,34.56,-54.96,-61.92,-6.898,-26.44,3.099,-7.805,-2.067,-37.7,2.182,-80.02,35.05,-6.822,-53.13,-55.62,0,0,0,0,0,0,0,0,0,0,0,0,0,0,0,0,
700,-20.65,28.69,-67.19,-70.24,-20.6,-32.59,-2.067,-12.09,13.6,-35.58,3.249,-76.86,45.92,2.836,-47.78,-40.99,0,0,0,0,0,0,0,0,0,0,0,0,0,0,0,0,
701,-23.18,37.93,-67.35,-63.91,-28.84,-34.6,1.973,-7.551,11.18,-27.68,-0.0335,-69.77,57,15.12,-41.44,-28.43,0,0,0,0,0,0,0,0,0,0,0,0,0,0,0,0,
702,-30.7,50.22,-71.9,-63.97,-37.62,-37.21,8.198,-4.706,5.162,-17.2,4.302,-67.08,59.87,16.22,-35.29,-30.78,0,0,0,0,0,0,0,0,0,0,0,0,0,0,0,0,
703,-34.35,54.69,-81.37,-67.9,-50.87,-49.01,8.659,3.853,-24.21,-7.416,-2.054,-72.37,56.73,10.89,-38.07,-35.82,0,0,0,0,0,0,0,0,0,0,0,0,0,0,0,0,
704,-40.65,48.03,-84.22,-69.52,-56.68,-59.87,-3.235,8.803,-44.51,-7.352,-15.77,-80.17,50.98,8.878,-50.06,-42.83,0,0,0,0,0,0,0,0,0,0,0,0,0,0,0,0,
705,-54.32,36.91,-78.82,-76.74,-49.93,-61.19,-22.02,0.2193,-20.66,-17.35,-19.35,-84.62,44.65,9.201,-58.18,-48.98,0,0,0,0,0,0,0,0,0,0,0,0,0,0,0,0,
706,-65.13,26.13,-76.98,-87.1,-47.74,-70.65,-39.05,-10.62,-9.657,-20.78,-17.19,-89.94,36.97,8.501,-63.95,-50.37,0,0,0,0,0,0,0,0,0,0,0,0,0,0,0,0,
707,-72.64,12.55,-90.13,-91.58,-59.35,-89.85,-50.22,-13.79,-26.74,-18.28,-17.88,-95.85,32.27,8.523,-70.72,-53.26,0,0,0,0,0,0,0,0,0,0,0,0,0,0,0,0,
708,-80,4.144,-105.6,-95.46,-70.07,-100.8,-57.52,-13.74,-37.23,-18.52,-21.46,-92.13,36.14,10.92,-65.77,-50.32,0,0,0,0,0,0,0,0,0,0,0,0,0,0,0,0,
709,-79.99,5.207,-111.5,-105.3,-70.39,-104.5,-63.56,-15.69,-43.88,-17.26,-15.66,-80.35,44.99,16.64,-52.12,-35.18,0,0,0,0,0,0,0,0,0,0,0,0,0,0,0,0,
710,-67.88,12.5,-110.7,-107.8,-63.68,-98.06,-57.05,-11.38,-31.39,-13.25,4.605,-69.12,56.82,28.86,-43.16,-17.11,0,0,0,0,0,0,0,0,0,0,0,0,0,0,0,0,
711,-54.42,25.77,-105.8,-104.1,-56.29,-80.6,-42.53,-5.405,2.957,-5.465,19.57,-57.24,69.38,39.95,-29.8,-0.4591,0,0,0,0,0,0,0,0,0,0,0,0,0,0,0,0,
712,-52.04,35.19,-105.7,-111.4,-53.39,-75.14,-41.47,-13.39,9.708,3.321,20.38,-45.91,75.07,37.71,-15.75,6.076,0,0,0,0,0,0,0,0,0,0,0,0,0,0,0,0,
713,-56.59,37.93,-110.6,-114.4,-53.87,-82.45,-44.88,-19.7,-11.74,-0.6839,14.75,-43.17,70.97,26.93,-24.73,-8.712,0,0,0,0,0,0,0,0,0,0,0,0,0,0,0,0,
714,-58.34,41.91,-108.6,-104.1,-54.69,-80.29,-39.1,-13.09,-17.71,-12.4,9.195,-42.04,61.66,18.75,-37.77,-25.97,0,0,0,0,0,0,0,0,0,0,0,0,0,0,0,0,
715,-54.33,43.07,-105.7,-100.7,-57.25,-73.58,-34.85,-8.45,-14.64,-15.22,11.07,-34.05,56.04,15.74,-28.67,-22.72,0,0,0,0,0,0,0,0,0,0,0,0,0,0,0,0,
716,-48.95,38.79,-111,-100.3,-62.68,-75.81,-34.39,-0.3299,-21.17,-14.22,13.69,-34.32,53.68,13.23,-24.19,-16.09,0,0,0,0,0,0,0,0,0,0,0,0,0,0,0,0,
717,-49.45,29.63,-113.5,-91.67,-64.92,-77.66,-32.62,10.78,-19.02,-19.17,9.292,-46.9,44.29,5.648,-35.68,-26.84,0,0,0,0,0,0,0,0,0,0,0,0,0,0,0,0,
718,-57.4,11.06,-108.1,-84.49,-68.2,-78.95,-34.71,3.433,-19.2,-29,1.281,-55.57,31.9,-1.223,-41.43,-39.26,0,0,0,0,0,0,0,0,0,0,0,0,0,0,0,0,
719,-70.84,-8.356,-108.4,-80.78,-81.5,-92.05,-43.79,-13.54,-36.06,-37.88,-7.704,-60.23,25.84,-1.224,-47.94,-40.11,0,0,0,0,0,0,0,0,0,0,0,0,0,0,0,0,
720,-79.47,-16.35,-112.4,-76.95,-80.75,-101.3,-55.81,-19.77,-28.88,-40.08,-5.218,-62.87,20.97,-3.366,-58.55,-42.56,0,0,0,0,0,0,0,0,0,0,0,0,0,0,0,0,
721,-77.25,-17.1,-108.2,-74.68,-66.93,-100.4,-64.94,-15.84,-13.82,-42.07,0.6759,-63.19,13.95,-10.72,-58.44,-51.86,0,0,0,0,0,0,0,0,0,0,0,0,0,0,0,0,
722,-84.68,-18.86,-116.3,-81.38,-87.35,-117.4,-70.46,-11.75,-37.91,-50.54,-13.91,-73.98,6.743,-16.57,-60.44,-61.78,0,0,0,0,0,0,0,0,0,0,0,0,0,0,0,0,
723,-107.2,-26.7,-140,-100.2,-112.8,-139,-79.32,-19.42,-49.87,-56.46,-27.41,-89.31,-2.534,-24.87,-74.76,-71.18,0,0,0,0,0,0,0,0,0,0,0,0,0,0,0,0,
724,-117.5,-38.81,-133.4,-107.7,-86.68,-130.3,-88.45,-27.4,-26.35,-55.67,-26.92,-92.33,-11.37,-38.02,-83.72,-74.09,0,0,0,0,0,0,0,0,0,0,0,0,0,0,0,0,
725,-108.9,-42.1,-99.07,-88.27,-54.58,-114.7,-85.76,-16.21,-18.2,-57.69,-34.17,-91.96,-20.23,-49.15,-85.7,-74,0,0,0,0,0,0,0,0,0,0,0,0,0,0,0,0,
726,-104.6,-40.85,-87.6,-70.75,-59.46,-124.4,-84.61,-8.288,-29.02,-66.76,-42.46,-101.1,-35.84,-57.14,-95.44,-88.01,0,0,0,0,0,0,0,0,0,0,0,0,0,0,0,0,
727,-116.8,-51.69,-100.5,-74.93,-71.47,-140.9,-98.33,-22.77,-40.05,-74.29,-42.59,-112.1,-47.21,-59.35,-105.1,-100.4,0,0,0,0,0,0,0,0,0,0,0,0,0,0,0,0,
728,-124.3,-57.1,-106.1,-78.93,-69.61,-137.2,-99.15,-34.37,-35.01,-75.99,-35.54,-110,-43.81,-56.25,-101.9,-90.12,0,0,0,0,0,0,0,0,0,0,0,0,0,0,0,0,
729,-112.8,-46.84,-103.1,-75.79,-59.93,-128.7,-86.19,-35.94,-19.26,-79.33,-25.33,-102.5,-44.33,-61.44,-102.5,-87.22,0,0,0,0,0,0,0,0,0,0,0,0,0,0,0,0,
730,-109.7,-48.99,-109.5,-83.24,-59.75,-138,-94.21,-46.17,-39.55,-82.7,-39.87,-108.3,-53.09,-70.82,-116.7,-103.7,0,0,0,0,0,0,0,0,0,0,0,0,0,0,0,0,
731,-118.7,-54.8,-119,-91.3,-72.79,-145,-101.2,-51.53,-67.74,-82.54,-64.72,-116.2,-49.67,-70.14,-124.7,-107.5,0,0,0,0,0,0,0,0,0,0,0,0,0,0,0,0,
732,-115.3,-41.58,-114.7,-84.02,-76.39,-135.4,-81.81,-34.61,-46.66,-84.04,-61.34,-111.6,-38.62,-68.35,-124.5,-102.3,0,0,0,0,0,0,0,0,0,0,0,0,0,0,0,0,
733,-109,-31.45,-107.1,-74.11,-67.81,-126.6,-68.81,-17.9,-22.24,-78.37,-53.85,-103.1,-30.39,-66.06,-120.2,-97.62,0,0,0,0,0,0,0,0,0,0,0,0,0,0,0,0,
734,-102.2,-26.24,-104.1,-68.39,-60.65,-116.7,-67.22,-19.82,-28.05,-64.55,-49.14,-91.3,-16.5,-51.97,-95.83,-71.29,0,0,0,0,0,0,0,0,0,0,0,0,0,0,0,0,
735,-83.96,-10.82,-97.8,-62.91,-51.14,-100.8,-56.29,-22.19,-22,-56.29,-16.41,-69.75,5.226,-33.55,-53.51,-30.02,0,0,0,0,0,0,0,0,0,0,0,0,0,0,0,0,
736,-59.63,7.2,-82.5,-50.09,-27.34,-77.67,-35.33,-3.437,14.24,-38.65,34.2,-29.74,38.38,-7.225,0.297,15.42,0,0,0,0,0,0,0,0,0,0,0,0,0,0,0,0,
737,-19.23,37.25,-51.05,-21.48,8.257,-40.77,-5.809,24.47,57.82,-9.854,82.63,20.39,73.16,26.77,54.76,59.44,0,0,0,0,0,0,0,0,0,0,0,0,0,0,0,0,
738,12.8,63.26,-40.54,-15.2,9.822,-37.15,-2.758,22.4,65.44,-8.831,94.27,21.91,67.69,27.47,53.41,53.23,0,0,0,0,0,0,0,0,0,0,0,0,0,0,0,0,
739,-25.59,37.13,-95.42,-65.47,-53.52,-103.4,-54.62,-16.99,4.023,-41.52,24.93,-48.49,16.86,-15.72,-21.92,-7.841,0,0,0,0,0,0,0,0,0,0,0,0,0,0,0,0,
740,-105.8,-17.59,-158.5,-117.6,-118.1,-169.5,-104.9,-48.95,-80.13,-75.25,-73.52,-120.3,-32.76,-58.19,-100.1,-58.86,0,0,0,0,0,0,0,0,0,0,0,0,0,0,0,0,
741,-147,-48.56,-166.7,-123.8,-124.9,-178.6,-111.7,-49.02,-103.7,-86.79,-111,-143.7,-57.06,-76.11,-134.8,-82.72,0,0,0,0,0,0,0,0,0,0,0,0,0,0,0,0,
742,-144.9,-59.86,-154.3,-116.4,-110,-166.9,-110.3,-43.62,-82.91,-80.2,-94.34,-140.3,-62.04,-75.3,-136.9,-88.52,0,0,0,0,0,0,0,0,0,0,0,0,0,0,0,0,
743,-136,-63.5,-156.4,-121.8,-112.7,-166.8,-118.8,-50.49,-88.99,-80.52,-74.85,-130.3,-52.87,-63.49,-117.8,-67.51,0,0,0,0,0,0,0,0,0,0,0,0,0,0,0,0,
744,-128.7,-59.97,-163.1,-128.6,-118.6,-171.3,-125.2,-56.76,-96.28,-85.1,-64.7,-114.6,-38.45,-53.24,-97,-46.98,0,0,0,0,0,0,0,0,0,0,0,0,0,0,0,0,
745,-123.2,-61.06,-159.7,-128,-114,-172.2,-130.3,-54.46,-69.3,-77.83,-53.03,-99.75,-28.76,-50.25,-84.71,-44.64,0,0,0,0,0,0,0,0,0,0,0,0,0,0,0,0,
746,-122.4,-62.56,-144.7,-117.4,-104.7,-162.8,-124,-47.35,-59.18,-75.86,-33.92,-84.95,-19.47,-48.44,-63.2,-31.94,0,0,0,0,0,0,0,0,0,0,0,0,0,0,0,0,
747,-111,-45.08,-132.1,-97.53,-95.3,-142.2,-97.66,-35.12,-63.64,-75.41,-16.13,-64.4,-4.871,-45.25,-41.93,-12.69,0,0,0,0,0,0,0,0,0,0,0,0,0,0,0,0,
748,-90.16,-21.68,-124.4,-80.97,-87.62,-128.9,-81.03,-22.21,-43.34,-62.96,-12.91,-54.96,1.897,-43.64,-48.61,-14.15,0,0,0,0,0,0,0,0,0,0,0,0,0,0,0,0,
749,-95.16,-21.78,-117.2,-76.82,-90.36,-133.5,-90.75,-18.42,-42.18,-65.39,-24,-71.02,-6.276,-44.95,-65.97,-23.38,0,0,0,0,0,0,0,0,0,0,0,0,0,0,0,0,
750,-117.2,-30.6,-116.2,-75.62,-105,-139.8,-93.92,-19.21,-68.55,-72.09,-39.99,-89.97,-11.14,-43.59,-70.89,-21.43,0,0,0,0,0,0,0,0,0,0,0,0,0,0,0,0,
751,-114.2,-20.12,-111.1,-67.88,-109.4,-134.6,-75.22,-15.06,-71.74,-53.67,-50.19,-94.5,-8.168,-36.32,-78.08,-20.66,0,0,0,0,0,0,0,0,0,0,0,0,0,0,0,0,
752,-100.5,-6.141,-97.32,-58.38,-97.58,-124.4,-60.29,-7.717,-71.02,-48.02,-47.11,-94.78,-14.22,-33.42,-90.5,-30.59,0,0,0,0,0,0,0,0,0,0,0,0,0,0,0,0,
753,-103.1,-6.636,-95.72,-54.27,-98.83,-121.9,-58.97,-4.399,-87.16,-66.79,-38.35,-95.79,-27.35,-40.31,-92.72,-39.34,0,0,0,0,0,0,0,0,0,0,0,0,0,0,0,0,
754,-108.5,-11.16,-101.9,-55.35,-106.3,-126.6,-60.54,-11.26,-89.27,-68.09,-37.38,-98.37,-33.81,-45.81,-92.21,-41.12,0,0,0,0,0,0,0,0,0,0,0,0,0,0,0,0,
755,-109.2,-16.68,-98.02,-56.02,-91.02,-125.3,-65.97,-19.96,-81.02,-62.7,-40.01,-101,-34.52,-45.57,-95.26,-40.53,0,0,0,0,0,0,0,0,0,0,0,0,0,0,0,0,
756,-108.9,-25.05,-95.26,-55.82,-80.72,-119.2,-74.17,-15.83,-73.32,-69.72,-34.47,-92.12,-30.53,-46.72,-88.66,-36.78,0,0,0,0,0,0,0,0,0,0,0,0,0,0,0,0,
757,-98.39,-21.65,-96.21,-53.97,-86.24,-111.5,-67.52,-5.781,-56.71,-61.82,-26.57,-74.1,-18.91,-47.34,-76.86,-33.42,0,0,0,0,0,0,0,0,0,0,0,0,0,0,0,0,
758,-77.66,-3.647,-84.39,-43.63,-73.5,-92.91,-47.37,-2.175,-50.63,-44.58,-24.2,-59.88,-8.486,-40.74,-70.54,-30.1,0,0,0,0,0,0,0,0,0,0,0,0,0,0,0,0,
759,-64.34,6.457,-71.92,-36.22,-62.77,-79.13,-42.36,-3.978,-56.86,-49.01,-16.72,-48.78,-2.544,-29.59,-55.59,-14.28,0,0,0,0,0,0,0,0,0,0,0,0,0,0,0,0,
760,-61.81,2.647,-78.01,-46.24,-73.68,-87.1,-54.54,-7.517,-44.72,-60.76,-2.605,-40.99,7.528,-20.44,-34.69,2.648,0,0,0,0,0,0,0,0,0,0,0,0,0,0,0,0,
761,-60.98,0.6526,-89.97,-61.01,-75.8,-98.03,-63.57,-9.981,-29.7,-57.9,-0.6526,-43.72,13.66,-17.24,-34.95,1.091,0,0,0,0,0,0,0,0,0,0,0,0,0,0,0,0,
762,-66.57,2.269,-96.13,-71.16,-72.55,-103.1,-71.11,-14.25,-40.04,-55.34,-12.87,-50.63,9.263,-19.37,-48.43,-4.62,0,0,0,0,0,0,0,0,0,0,0,0,0,0,0,0,
763,-72.67,5.823,-99.93,-77.8,-74.08,-104.9,-74.1,-17.42,-48.49,-62.52,-19.36,-50.76,10.34,-20.09,-52.3,-5.366,0,0,0,0,0,0,0,0,0,0,0,0,0,0,0,0,
764,-65.8,12.12,-99.71,-76.58,-67.64,-97.57,-64.15,-8.771,-33.85,-61.23,-10.39,-49.64,15.29,-15.56,-54.41,-10.41,0,0,0,0,0,0,0,0,0,0,0,0,0,0,0,0,
765,-62.29,12.18,-94.7,-71.16,-63.09,-89.29,-56.37,1.146,-29.94,-50.77,-0.8652,-52.56,11.18,-11.83,-57.9,-10.67,0,0,0,0,0,0,0,0,0,0,0,0,0,0,0,0,
766,-67.86,11.9,-86.67,-63.14,-62.63,-85.04,-51.25,4.551,-50.98,-50.97,-6.676,-51.73,11.31,-11.82,-52.3,-1.879,0,0,0,0,0,0,0,0,0,0,0,0,0,0,0,0,
767,-65.16,19.02,-79.78,-52.34,-57.28,-78.9,-39.93,13.67,-53.29,-52.17,-10.19,-44.39,22.54,-8.06,-41.77,4.811,0,0,0,0,0,0,0,0,0,0,0,0,0,0,0,0,
768,-56.98,23.05,-74.56,-44,-48.93,-70.28,-32.93,24.77,-28.57,-40.04,1.898,-34.43,29.69,-2.348,-33.83,9.841,0,0,0,0,0,0,0,0,0,0,0,0,0,0,0,0,
769,-45.41,28.48,-57.87,-28.63,-33.52,-55.92,-23.24,32.94,-18.83,-34.76,6.186,-24.05,32.27,-1.268,-30.32,11.93,0,0,0,0,0,0,0,0,0,0,0,0,0,0,0,0,
770,-30.38,37.41,-39.12,-12.36,-22.79,-45.25,-10.26,36.96,-18.62,-39.44,3.896,-20.59,35.28,3.01,-32.51,4.325,0,0,0,0,0,0,0,0,0,0,0,0,0,0,0,0,
771,-30.61,31.43,-39.05,-16.5,-24.93,-49.97,-18.13,29.79,-9.342,-35.58,7.126,-30.43,28.15,5.162,-42.1,-8.273,0,0,0,0,0,0,0,0,0,0,0,0,0,0,0,0,
772,-44.63,18.62,-36.29,-13.55,-21.33,-51.79,-23.38,37.8,-10.45,-27.75,-1.194,-40.58,19.09,-2.723,-50.2,-10.91,0,0,0,0,0,0,0,0,0,0,0,0,0,0,0,0,
773,-47.86,23.53,-21.77,14.8,-17.69,-40.59,0.653,67.41,-14.12,-18.42,-2.038,-33.1,30.66,4.894,-36.17,6.638,0,0,0,0,0,0,0,0,0,0,0,0,0,0,0,0,
774,-37.45,37.26,-24.93,18.69,-23.3,-33.93,10.29,66.96,-7.566,-11.9,22.56,-21.9,42.24,22.89,-15.38,21.93,0,0,0,0,0,0,0,0,0,0,0,0,0,0,0,0,
775,-35.62,36.29,-36.65,-7.232,-21.8,-38.05,-6.671,45.71,-8.068,-22.49,31.42,-26.04,32.58,15.47,-19.57,12.95,0,0,0,0,0,0,0,0,0,0,0,0,0,0,0,0,
776,-49.02,26.81,-32.62,-7.712,-19.86,-46.55,-8.339,54.15,-15.06,-26.59,19.82,-27.22,31.3,6.78,-24.33,6.843,0,0,0,0,0,0,0,0,0,0,0,0,0,0,0,0,
777,-54.17,26.66,-28.87,7.461,-30.92,-56.18,-5.284,63.74,-21.06,-14.34,14.15,-20.54,40.68,17.97,-10.35,16.44,0,0,0,0,0,0,0,0,0,0,0,0,0,0,0,0,
778,-46.34,27.9,-28.15,5.24,-36.29,-60,-13.8,53.18,-18.93,-17.9,7.58,-24.98,36.68,17.97,-5.226,17.65,0,0,0,0,0,0,0,0,0,0,0,0,0,0,0,0,
779,-44.93,24.74,-17.66,7.292,-29.06,-58.35,-11.48,58.4,-13.42,-24.96,4.29,-27.86,34.59,8.836,-8.203,13.02,0,0,0,0,0,0,0,0,0,0,0,0,0,0,0,0,
780,-47.46,23.24,-22.79,6.54,-33.89,-67.57,-18.06,63.4,-34.09,-22.61,5.026,-25.9,31.88,2.342,-5.713,11.02,0,0,0,0,0,0,0,0,0,0,0,0,0,0,0,0,
781,-46.46,14.78,-47.82,-14.41,-49.17,-83.18,-40.64,45.14,-45,-38.34,-2.006,-34.41,17.96,-9.637,-7.378,7.98,0,0,0,0,0,0,0,0,0,0,0,0,0,0,0,0,
782,-48.3,8.766,-49.76,-16.11,-50.18,-82.96,-32.22,44.55,-12.75,-49.75,-3.224,-36.92,21.74,-7.609,-13.09,9.825,0,0,0,0,0,0,0,0,0,0,0,0,0,0,0,0,
783,-52.69,22.86,-40.51,-5.867,-53.81,-79.73,-15.38,56.01,-23.53,-36.73,-5.729,-37.3,27.62,1.627,-24.32,2.025,0,0,0,0,0,0,0,0,0,0,0,0,0,0,0,0,
784,-58.93,28.86,-62.93,-28.85,-77.62,-93.21,-40.85,31.48,-80.56,-43.87,-20.69,-53.54,4.483,-15.99,-40.33,-22.17,0,0,0,0,0,0,0,0,0,0,0,0,0,0,0,0,
785,-69.36,7.389,-92.68,-58.54,-95.56,-109.7,-72.04,0.8686,-72.64,-69.29,-23.6,-58.31,-9.134,-37.77,-43.37,-28.86,0,0,0,0,0,0,0,0,0,0,0,0,0,0,0,0,
786,-75.56,-5.519,-100.4,-67.06,-100.8,-117.9,-70.22,6.968,-36.8,-65.26,-24.54,-49.37,1.382,-37.82,-40.87,-19.48,0,0,0,0,0,0,0,0,0,0,0,0,0,0,0,0,
787,-70.52,10.3,-98.04,-64.02,-102.7,-116.7,-52.78,26.47,-53.44,-42.16,-39.78,-53.46,2.75,-32.14,-46.99,-26.19,0,0,0,0,0,0,0,0,0,0,0,0,0,0,0,0,
788,-64.06,23.04,-89.15,-47.89,-91.89,-104.4,-39.24,38.95,-57.04,-34.08,-34.43,-50.88,0.9918,-22.8,-42.89,-31.2,0,0,0,0,0,0,0,0,0,0,0,0,0,0,0,0,
789,-59.03,16.89,-74.74,-33.87,-74.09,-89.56,-33.09,44.31,-31.7,-33.25,-15.78,-31.46,10.24,-10.05,-28.19,-13.61,0,0,0,0,0,0,0,0,0,0,0,0,0,0,0,0,
790,-44.52,18.77,-64.38,-36.04,-64.05,-79.19,-28.39,37.09,-48.9,-26.08,-25.98,-24.25,13.88,-12.17,-30.44,-3.845,0,0,0,0,0,0,0,0,0,0,0,0,0,0,0,0,
791,-32.1,27.37,-61.32,-39.41,-58.88,-73.89,-25.73,28.56,-66.49,-26.51,-33.21,-26.27,7.445,-24.45,-40.14,-12.53,0,0,0,0,0,0,0,0,0,0,0,0,0,0,0,0,
792,-35.28,14.24,-65.32,-42.14,-56.15,-74.88,-30.81,29.89,-35.56,-37.28,-11.71,-20.07,1.741,-26.5,-32.95,-10.02,0,0,0,0,0,0,0,0,0,0,0,0,0,0,0,0,
793,-42.86,-6.237,-72.93,-46.29,-66.43,-85.07,-38.3,30.77,-33.04,-37.53,-14.56,-24.42,-3.473,-21.27,-28.52,-1.999,0,0,0,0,0,0,0,0,0,0,0,0,0,0,0,0,
794,-55.69,-11.25,-82.87,-45.89,-88.59,-103.6,-45.51,27.65,-70.9,-28.72,-45.76,-48.25,-8.976,-21.78,-44.79,-13.76,0,0,0,0,0,0,0,0,0,0,0,0,0,0,0,0,
795,-72.32,-13.72,-88.3,-46.34,-96,-113.6,-51.88,27.04,-78.42,-30.94,-55.83,-64.57,-12.17,-28.74,-61.13,-29.92,0,0,0,0,0,0,0,0,0,0,0,0,0,0,0,0,
796,-74.21,-20.84,-78.06,-45.37,-83.66,-107.1,-52.89,28.23,-69.4,-42.44,-52.05,-61.05,-18.38,-39.12,-64.58,-34.03,0,0,0,0,0,0,0,0,0,0,0,0,0,0,0,0,
797,-62.87,-23.38,-61.8,-35.15,-70.48,-94.97,-47.68,30.93,-64.26,-47.55,-45.05,-49.12,-25.07,-46.97,-61.68,-33.55,0,0,0,0,0,0,0,0,0,0,0,0,0,0,0,0,
798,-47.93,-23.47,-52.43,-26.8,-57.02,-82.42,-40.24,35.21,-50.04,-45.56,-30.53,-37.77,-24.1,-44.52,-59.99,-28.92,0,0,0,0,0,0,0,0,0,0,0,0,0,0,0,0,
799,-36.54,-26.98,-50.31,-29.77,-49.34,-77.49,-41.78,35.85,-48.91,-44.6,-28.98,-31.36,-20.77,-36.53,-61.56,-22.33,0,0,0,0,0,0,0,0,0,0,0,0,0,0,0,0,
800,-33.55,-22,-51.03,-29.59,-48.57,-75.6,-46.91,36.73,-44.72,-38.18,-21.44,-26.83,-14.7,-30.17,-58.06,-18.46,0,0,0,0,0,0,0,0,0,0,0,0,0,0,0,0,
801,-31.84,-5.669,-47.03,-20.1,-42.28,-65.76,-42.91,41.95,-30.98,-26.7,-3.015,-27.13,-5.516,-27.25,-54.85,-13.48,0,0,0,0,0,0,0,0,0,0,0,0,0,0,0,0,
802,-38.42,-4.34,-50.6,-24.88,-49.24,-70.04,-50.18,36.3,-54.26,-32.75,-20.43,-39.28,-9.981,-32.55,-64.36,-14.13,0,0,0,0,0,0,0,0,0,0,0,0,0,0,0,0,
803,-52.87,-20.47,-71.73,-48.87,-67.08,-90.96,-71.21,19.2,-72.79,-46.99,-43.4,-47.64,-26.48,-41.06,-73.13,-26.36,0,0,0,0,0,0,0,0,0,0,0,0,0,0,0,0,
804,-56.41,-30.48,-84.59,-64.03,-65.34,-100.1,-77.22,13.55,-46.99,-40.38,-33.57,-47.64,-35.94,-42.24,-73.62,-38.72,0,0,0,0,0,0,0,0,0,0,0,0,0,0,0,0,
805,-59.48,-35.29,-78.76,-62.16,-57.96,-98.13,-75.12,17.61,-39.07,-32.37,-30.65,-52.66,-34.13,-38.03,-73.32,-40.12,0,0,0,0,0,0,0,0,0,0,0,0,0,0,0,0,
806,-64.1,-37.68,-70.08,-58.62,-54.22,-89.55,-77.89,15.78,-50.58,-42.65,-31.74,-48.51,-24.81,-30.54,-63.51,-29.47,0,0,0,0,0,0,0,0,0,0,0,0,0,0,0,0,
807,-51.73,-34.28,-58.78,-55.96,-40.81,-74.73,-74.66,12.34,-36.99,-47.17,-15.96,-28.89,-20.77,-26.33,-43.65,-22.71,0,0,0,0,0,0,0,0,0,0,0,0,0,0,0,0,
808,-36.55,-36.32,-44.38,-45.81,-28.3,-65.96,-67.79,12.62,-17.5,-42.63,-4.302,-17.01,-32.65,-38.91,-32.67,-34.66,0,0,0,0,0,0,0,0,0,0,0,0,0,0,0,0,
809,-31.88,-42.61,-37.47,-34.48,-20.67,-59.27,-63.57,15.03,-12.66,-47.14,4.874,-16.8,-39.76,-51.97,-34.41,-40.98,0,0,0,0,0,0,0,0,0,0,0,0,0,0,0,0,
810,-29.72,-37.89,-36.6,-31.69,-12.95,-49.67,-56.92,19.74,-8.987,-47.19,10.1,-14.44,-25.03,-41.49,-36,-24.08,0,0,0,0,0,0,0,0,0,0,0,0,0,0,0,0,
811,-25.32,-21.41,-30.19,-24.56,-10.36,-43.31,-44.47,26.22,-2.478,-34.31,-1.944,-10.13,-14.46,-31.83,-37.96,-21.25,0,0,0,0,0,0,0,0,0,0,0,0,0,0,0,0,
812,-18.62,-13.75,-23.91,-14.2,-13.53,-45.22,-37.56,30.62,-13.08,-36.06,-18.33,-20.25,-28.27,-44.77,-50.45,-44.96,0,0,0,0,0,0,0,0,0,0,0,0,0,0,0,0,
813,-24.63,-26.64,-32.68,-22.28,-21.23,-60.17,-50.23,26.14,-32.42,-52.97,-31.95,-44.91,-41.38,-48.44,-61.63,-52.38,0,0,0,0,0,0,0,0,0,0,0,0,0,0,0,0,
814,-46.87,-36.59,-46.92,-34.98,-29.71,-74.06,-63.7,18.12,-29.52,-49.95,-35.99,-54.94,-36.91,-28.87,-58.7,-39.62,0,0,0,0,0,0,0,0,0,0,0,0,0,0,0,0,
815,-58.42,-31.8,-50.98,-33.53,-30.87,-70.74,-57.49,19.58,-22.96,-33.11,-23.36,-42.99,-27.57,-13.86,-50.49,-32.91,0,0,0,0,0,0,0,0,0,0,0,0,0,0,0,0,
816,-47.68,-23.15,-44.68,-29.37,-18.71,-57.81,-46.57,26.05,-18.77,-32.53,-17.87,-32.66,-15.16,-9.111,-42.34,-26.39,0,0,0,0,0,0,0,0,0,0,0,0,0,0,0,0,
817,-36.54,-10.62,-33.83,-26.68,-4.572,-48.35,-42.56,26.94,-9.694,-35.02,-31.66,-37.19,-7.679,-8.491,-44.54,-24.94,0,0,0,0,0,0,0,0,0,0,0,0,0,0,0,0,
818,-44.24,-10.16,-32.04,-26.47,-8.87,-49.71,-43.57,21.71,-37.43,-25.96,-40.92,-47.67,-14.97,-14.66,-54.46,-32.87,0,0,0,0,0,0,0,0,0,0,0,0,0,0,0,0,
819,-51.68,-22.9,-37.3,-26.59,-18.35,-52.35,-45.18,16.81,-66.8,-23.84,-37.25,-43.71,-12.42,-16.58,-43.92,-26.2,0,0,0,0,0,0,0,0,0,0,0,0,0,0,0,0,
820,-43.89,-17.51,-34.88,-14.8,-20.47,-47.99,-37.51,21.77,-37.5,-28.33,-42.99,-32.45,-0.2642,-15.59,-32.44,-20.09,0,0,0,0,0,0,0,0,0,0,0,0,0,0,0,0,
821,-44.51,-6.361,-32.8,-0.0904,-27.21,-45.77,-24.64,33.54,-13.3,-20.01,-52.62,-33.39,-4.01,-21.66,-41.47,-28.47,0,0,0,0,0,0,0,0,0,0,0,0,0,0,0,0,
822,-44.76,-3.692,-30.69,7.055,-23.9,-38.22,-15.12,41.03,-21.36,-8.255,-37.47,-30.27,-8.385,-20.91,-34.76,-22.46,0,0,0,0,0,0,0,0,0,0,0,0,0,0,0,0,
823,-29.32,6.529,-22.25,11.39,-12.19,-28.19,-9.642,44.09,-19.35,-11.45,-25.08,-27.3,-10.56,-15.72,-26.75,-20.64,0,0,0,0,0,0,0,0,0,0,0,0,0,0,0,0,
824,-35.23,3.071,-27.3,8.714,-20.7,-38.96,-14.6,45.15,-23.16,-17.78,-43.09,-48.61,-25.5,-19.32,-49.89,-38.06,0,0,0,0,0,0,0,0,0,0,0,0,0,0,0,0,
825,-56.55,-12.85,-41.28,-0.2728,-30.63,-53.33,-25.11,45.51,-39.72,-13.87,-52.82,-66.16,-29.73,-16.76,-64.14,-35.66,0,0,0,0,0,0,0,0,0,0,0,0,0,0,0,0,
826,-53.02,-5.149,-40.67,-6.732,-24.99,-51.37,-28.69,47.95,-52.31,-8.681,-48.39,-59.66,-21.91,-10.79,-60.46,-29.88,0,0,0,0,0,0,0,0,0,0,0,0,0,0,0,0,
827,-41.95,2.641,-35.29,-5.01,-23.19,-48.17,-26.08,52.8,-56.09,-3.343,-53.69,-48.52,-23.02,-16.91,-60.05,-40.81,0,0,0,0,0,0,0,0,0,0,0,0,0,0,0,0,
828,-37.68,-4.63,-31.52,6.722,-24.24,-43.5,-15.74,61.73,-37.66,5.27,-42.36,-31.1,-14.64,-16.93,-43.29,-27.63,0,0,0,0,0,0,0,0,0,0,0,0,0,0,0,0,
829,-26.12,5.449,-20.14,12.96,-19.87,-32.58,-2.03,71.65,-19.08,6.01,-11.42,-8.493,1.919,-8.98,-23.54,-5.572,0,0,0,0,0,0,0,0,0,0,0,0,0,0,0,0,
830,-17.69,15.58,-14.6,3.196,-16.61,-27.49,-3.169,71.64,-21.68,-0.1005,-3.628,-2.318,-1.584,-15.02,-27.29,-10.4,0,0,0,0,0,0,0,0,0,0,0,0,0,0,0,0,
831,-21.74,1.067,-20.8,-4.916,-16.17,-25.38,-14.9,59.18,-25.14,-1.555,-18.56,-9.48,-8.304,-20.56,-30.31,-12.79,0,0,0,0,0,0,0,0,0,0,0,0,0,0,0,0,
832,-22.5,-6.356,-14.27,2.915,-13.36,-16.76,-14.09,49.14,-32.75,1.431,-23.85,-12.37,-0.0292,-9.121,-29.13,-6.299,0,0,0,0,0,0,0,0,0,0,0,0,0,0,0,0,
833,-15.4,-1.352,4.477,18.91,-9.203,-12.91,-2.443,55.82,-40.09,5.277,-17.98,-14.48,0.9407,0.1867,-39.08,-11.05,0,0,0,0,0,0,0,0,0,0,0,0,0,0,0,0,
834,-20.06,-10.66,7.818,24.11,-11.32,-25.32,-3.946,62.83,-26.23,3.177,-20.87,-23.26,-8.464,0.1637,-39.02,-10.76,0,0,0,0,0,0,0,0,0,0,0,0,0,0,0,0,
835,-39.31,-22.58,-2.377,9.886,-18.91,-45.38,-24.87,49.46,-24.11,-4.305,-35,-28.96,-9.592,1.355,-28.31,-0.4655,0,0,0,0,0,0,0,0,0,0,0,0,0,0,0,0,
836,-53.7,-24.56,-13.54,-6.145,-28.11,-62.03,-43.85,33.79,-48.79,-6.324,-45.99,-32.15,-11.56,-1.27,-36.42,-0.9401,0,0,0,0,0,0,0,0,0,0,0,0,0,0,0,0,
837,-64.21,-30.97,-26.94,-8.44,-37.54,-71.54,-47.58,31.38,-57.51,-11.13,-47.3,-42.01,-23.49,-10.06,-50.08,-8.995,0,0,0,0,0,0,0,0,0,0,0,0,0,0,0,0,
838,-72.49,-35.99,-35.08,-9.46,-42.53,-74.1,-49.25,32.07,-46.53,-18.35,-38.91,-40.57,-24.15,-9.708,-39.2,-4.623,0,0,0,0,0,0,0,0,0,0,0,0,0,0,0,0,
839,-62.35,-30.57,-36.39,-18.85,-44.09,-71.98,-56.97,32.99,-42.56,-9.126,-22.61,-23.72,-13.3,-1.113,-23.04,2.927,0,0,0,0,0,0,0,0,0,0,0,0,0,0,0,0,
840,-46.95,-32.19,-38.03,-23.44,-42.58,-66.72,-62.33,27.21,-46.1,-4.867,-15.21,-23.11,-21.89,-5.722,-30.02,-12.73,0,0,0,0,0,0,0,0,0,0,0,0,0,0,0,0,
841,-53.85,-45.78,-41.91,-22.01,-44.81,-73.03,-66.71,11.26,-53.26,-23.61,-30.34,-38.05,-43.24,-19.99,-45.47,-33.01,0,0,0,0,0,0,0,0,0,0,0,0,0,0,0,0,
842,-73.99,-53.53,-53.05,-28.37,-60.52,-94.83,-74.34,1.15,-55.36,-34.5,-46.86,-40.28,-44.2,-22.39,-47.04,-25.47,0,0,0,0,0,0,0,0,0,0,0,0,0,0,0,0,
843,-82.6,-49.06,-60.42,-35.19,-65.82,-98.78,-77.78,-6.925,-48.28,-36.59,-43.07,-29.15,-33.68,-20.65,-39.5,-13.68,0,0,0,0,0,0,0,0,0,0,0,0,0,0,0,0,
844,-72.15,-41.39,-50.7,-29.76,-48.2,-79.34,-71.98,-15.2,-45.62,-47.03,-32.7,-17.43,-33.13,-28.06,-34.95,-18.68,0,0,0,0,0,0,0,0,0,0,0,0,0,0,0,0,
845,-50.87,-33.36,-36.47,-16.65,-34.4,-66.16,-56.21,-1.472,-36.24,-46.53,-26.84,-15.02,-36,-36.36,-35.94,-20.91,0,0,0,0,0,0,0,0,0,0,0,0,0,0,0,0,
846,-40.88,-24.52,-27.12,-6.004,-31.93,-62.9,-42.21,20,-21.42,-36.54,-24.19,-25.88,-38.56,-40.94,-38.25,-18.97,0,0,0,0,0,0,0,0,0,0,0,0,0,0,0,0,
847,-55.22,-22.85,-28.37,-7.15,-36.08,-66.36,-47.67,21.14,-34.99,-33.08,-32.67,-33.09,-37.18,-35.21,-35.88,-18.17,0,0,0,0,0,0,0,0,0,0,0,0,0,0,0,0,
848,-65.06,-22.8,-39.4,-10.9,-44.37,-71.62,-53.99,16.58,-54.44,-26.3,-43.63,-27.58,-26.19,-18.62,-31.48,-12.67,0,0,0,0,0,0,0,0,0,0,0,0,0,0,0,0,
849,-52.7,-16.23,-43.05,-5.646,-46.65,-69.64,-44.57,14.06,-51.42,-27.19,-43.56,-29.61,-25.21,-17.62,-34.72,-15.18,0,0,0,0,0,0,0,0,0,0,0,0,0,0,0,0,
850,-53.02,-23.74,-43.66,-5.554,-46.24,-74.71,-48.16,3.918,-53.04,-46.66,-39.94,-40.09,-37.86,-32.57,-41.59,-25.07,0,0,0,0,0,0,0,0,0,0,0,0,0,0,0,0,
851,-65.9,-42.72,-42.06,-7.813,-42.49,-81.63,-63.76,-1.803,-54.64,-59.13,-32.26,-35.71,-42.39,-39.45,-40.24,-27.93,0,0,0,0,0,0,0,0,0,0,0,0,0,0,0,0,
