%OpenBCI Raw EXG Data
%Number of channels = 16
%Sample Rate = 125 Hz
%Board = OpenBCI_GUI$BoardCytonSerialDaisy
Sample Index,EXG Channel 0,EXG Channel 1,EXG Channel 2,EXG Channel 3,EXG Channel 4,EXG Channel 5,EXG Channel 6,EXG Channel 7,EXG Channel 8,EXG Channel 9,EXG Channel 10,EXG Channel 11,EXG Channel 12,EXG Channel 13,EXG Channel 14,EXG Channel 15,Accel Channel 0,Accel Channel 1,Accel Channel 2,Other,Other,Other,Other,Other,Other,Other,Analog Channel 0,Analog Channel 1,Analog Channel 2,Timestamp,Other,Timestamp (Formatted)
1,-0,0,-0,0,-0,0,0,0,-0,0,-0,0,0,0,0,0,0,0,0,0,0,0,0,0,0,0,0,0,0,0,0,0
2,-34.2,-14.93,-18.66,-5.383,-17.37,-15.09,-10.12,-1.346,-26.38,6.933,-10.24,-11.5,-1.539,6.032,-7.144,-4.125,0,0,0,0,0,0,0,0,0,0,0,0,0,0,0,0
3,-37.56,-18.02,-30.08,-11.07,-33.91,-25.62,-23.58,-2.954,-30.74,9.491,-25.74,-27.63,-4.07,8.504,-21.28,5.686,0,0,0,0,0,0,0,0,0,0,0,0,0,0,0,0
4,-48.2,-23.72,-49.78,-23.88,-43.53,-40.74,-41.85,-13.95,-30.15,12.23,-32.28,-35.41,1.376,18.81,-18.09,21.83,0,0,0,0,0,0,0,0,0,0,0,0,0,0,0,0
5,-59.93,-28.22,-58.44,-29.51,-41.75,-52.34,-49.63,-22.91,-37.02,12.06,-29.86,-24.62,11.82,30,-4.809,26.52,0,0,0,0,0,0,0,0,0,0,0,0,0,0,0,0
6,-54.1,-31.8,-58.85,-33.72,-41.41,-55.44,-48.67,-27.26,-36.8,0.0071,-28.93,-14.4,7.517,23.28,-3.025,16.9,0,0,0,0,0,0,0,0,0,0,0,0,0,0,0,0
7,-51.2,-46.22,-71.79,-48.26,-41.89,-53.22,-51.9,-37.32,-27.44,-10.99,-19.41,-11.86,-3.58,11.97,1.286,17.08,0,0,0,0,0,0,0,0,0,0,0,0,0,0,0,0
8,-43.61,-54.65,-67.09,-50.2,-29.27,-40.86,-48.89,-41.44,-22.23,-7.755,-3.984,-5.432,3.851,19.13,11.22,35.12,0,0,0,0,0,0,0,0,0,0,0,0,0,0,0,0
9,-30.35,-44.8,-47.18,-39.18,-17.8,-28.04,-33.1,-32.08,-17.93,-1.584,-1.808,-5.58,16.97,33.8,11.62,37.7,0,0,0,0,0,0,0,0,0,0,0,0,0,0,0,0
10,-31.04,-33.2,-46.51,-33.49,-19.95,-22.82,-17.39,-18.34,-12.34,1.039,-7.661,-12.48,12.98,32.12,4.133,16.05,0,0,0,0,0,0,0,0,0,0,0,0,0,0,0,0
11,-31.98,-33.81,-44.85,-28.04,-21.36,-16.93,-14.45,-8.831,-15.08,0.1394,-15.46,-12.39,1.811,15.39,-6.39,0.282,0,0,0,0,0,0,0,0,0,0,0,0,0,0,0,0
12,-26.06,-40.47,-27.1,-21.48,-15.67,-12.17,-19.34,-7.254,-16.96,-6.483,-24.14,-16.14,-3.344,3.905,-10.55,-3.111,0,0,0,0,0,0,0,0,0,0,0,0,0,0,0,0
13,-27.3,-40.38,-14.15,-17.1,-13.86,-12.91,-16.52,-5.942,-12.02,-10.24,-18.57,-24,-4.255,4.909,-3.135,-3.438,0,0,0,0,0,0,0,0,0,0,0,0,0,0,0,0
14,-28.11,-36.79,-12.38,-12.38,-16.98,-12.34,-11.21,-4.352,-9.256,-6.619,-4.24,-19.52,-1.534,9.882,-2.613,-0.4782,0,0,0,0,0,0,0,0,0,0,0,0,0,0,0,0
15,-18.68,-32.58,-13.48,-7.131,-9.256,-5.624,-10.78,-6.996,-4.111,0.5546,-2.165,-13.02,2.655,14.2,-12.04,-4.292,0,0,0,0,0,0,0,0,0,0,0,0,0,0,0,0
16,-11.74,-20.84,-3.214,3.678,8.274,5.006,0.9556,1.687,1.674,11.96,-9.657,-14,4.605,17.53,-12.61,-12.44,0,0,0,0,0,0,0,0,0,0,0,0,0,0,0,0
17,-10.74,-8.118,18.1,17.45,18.54,17.42,24.19,22.35,5.619,22.71,-13.34,-9.143,8.869,23.24,-5.76,-3.17,0,0,0,0,0,0,0,0,0,0,0,0,0,0,0,0
18,-2.227,-2.57,25.49,20.52,17.35,21.7,31.41,29.44,7.65,22.52,-14.39,-6.312,8.517,30.52,-7.842,6.919,0,0,0,0,0,0,0,0,0,0,0,0,0,0,0,0
19,2.458,-6.2,17.7,14.44,6.29,6.906,18.57,21.63,-8.131,13.39,-19.07,-15.32,-4.149,28.95,-12.97,-1.903,0,0,0,0,0,0,0,0,0,0,0,0,0,0,0,0
20,-4.982,-14.11,17.59,11.41,1.184,-0.5251,16.52,18.62,-14.23,12.68,-13.02,-5.611,-1.274,28.36,6.796,6.99,0,0,0,0,0,0,0,0,0,0,0,0,0,0,0,0
21,5.479,-6.861,19.3,6.692,12.65,18.59,29.43,19.32,11.68,23.77,11.17,25.42,23.96,42.35,42.91,38.23,0,0,0,0,0,0,0,0,0,0,0,0,0,0,0,0
22,28.49,11.6,10,-5.99,16.36,26.96,29.53,13.25,16.61,26.86,28.12,39.1,34.22,52.85,56.73,45.38,0,0,0,0,0,0,0,0,0,0,0,0,0,0,0,0
23,28.68,16.64,5.119,-11.81,10.12,15.44,21.08,10.51,5.475,21.95,31.83,40.19,32.7,53.39,54.47,36.59,0,0,0,0,0,0,0,0,0,0,0,0,0,0,0,0
24,18.62,9.821,4.907,-12.06,8.966,11.32,14.49,12.57,22.08,24.56,35.39,43.44,42.91,58.35,52.89,38.56,0,0,0,0,0,0,0,0,0,0,0,0,0,0,0,0
25,18.87,6.412,-3.288,-22.96,5.575,9.619,0.0257,1.165,26.1,29.22,35.11,35.3,48.76,61.65,42.76,35.12,0,0,0,0,0,0,0,0,0,0,0,0,0,0,0,0
26,23.1,11.74,-3.261,-30.83,9.339,9.601,-7.634,-10.67,11.01,29.55,37.53,29.18,44.58,56.84,40.98,27.78,0,0,0,0,0,0,0,0,0,0,0,0,0,0,0,0
27,26.31,17.79,5.235,-30.96,19.97,15.53,-5.123,-6.265,25.2,28,51.52,39.54,46.35,55.51,61.73,33.04,0,0,0,0,0,0,0,0,0,0,0,0,0,0,0,0
28,29.15,16.93,3.502,-39.3,19.04,13.63,-12.65,-9.875,47.37,22.62,63.33,46.14,48.91,58.79,74.55,36.53,0,0,0,0,0,0,0,0,0,0,0,0,0,0,0,0
29,28.98,10.86,1.509,-43.32,17.83,8.151,-19.63,-25.29,42.81,14.76,57.38,33.06,38.3,52.74,56.98,24.4,0,0,0,0,0,0,0,0,0,0,0,0,0,0,0,0
30,13,-5.685,1.439,-35.24,19.21,5.022,-16.85,-29.98,31.51,9.88,37.66,13.64,27.85,43.17,33.05,16.35,0,0,0,0,0,0,0,0,0,0,0,0,0,0,0,0
31,-3.139,-14.57,1.2,-29.66,24.87,8.989,-11.05,-27.06,35.28,11.75,29.1,16.89,39.59,51.12,36.73,31.24,0,0,0,0,0,0,0,0,0,0,0,0,0,0,0,0
32,11.52,4.848,18.08,-25.85,47.16,27.66,-5.449,-24.36,42.02,12.85,32.37,30.56,46.91,56.25,47.15,39.68,0,0,0,0,0,0,0,0,0,0,0,0,0,0,0,0
33,23.3,6.961,35.32,-21.22,53.94,33.44,-17.27,-23.74,34.71,0.904,20.6,19.27,21.26,29.74,27.02,16.15,0,0,0,0,0,0,0,0,0,0,0,0,0,0,0,0
34,4.649,-27.35,23.37,-24.18,27.48,12.37,-42.14,-32.47,27.18,-15.81,3.309,4.309,-1.603,2.35,1.995,-6.103,0,0,0,0,0,0,0,0,0,0,0,0,0,0,0,0
35,-10.98,-45.55,-4.603,-39.66,1.13,-8.495,-56.05,-47.04,26.67,-24.45,-1.77,5.734,-1.079,1.514,-1.905,-6.368,0,0,0,0,0,0,0,0,0,0,0,0,0,0,0,0
36,-20.43,-38.63,-18.94,-57.05,-9.537,-22.56,-68.36,-57.17,15.42,-25.2,-6.491,3.157,0.9842,10.46,0.8779,0.6278,0,0,0,0,0,0,0,0,0,0,0,0,0,0,0,0
37,-30.15,-29.13,-15.21,-60.38,-9.377,-35.81,-84.59,-58.93,2.761,-18.55,-7.432,3.631,3.716,21.13,10.59,11.42,0,0,0,0,0,0,0,0,0,0,0,0,0,0,0,0
38,-25.78,-19.23,-24.6,-60.03,-14.8,-46.24,-89.95,-55.19,7.87,-10.83,5.578,15.64,9.669,30.84,23.22,17.46,0,0,0,0,0,0,0,0,0,0,0,0,0,0,0,0
39,-25.93,-19.74,-50.17,-65.77,-36.54,-59.2,-88.45,-51,12.19,-8.873,13.73,18.44,11.01,28.85,19.43,10.47,0,0,0,0,0,0,0,0,0,0,0,0,0,0,0,0
40,-41.9,-30.58,-52.72,-63.23,-51.04,-75.63,-86.15,-46.97,-3.719,-7.956,-4.01,4.894,3.472,17.67,4.485,-0.9943,0,0,0,0,0,0,0,0,0,0,0,0,0,0,0,0
41,-58.4,-38.83,-48.13,-57.33,-56.23,-91.31,-79.67,-43.6,-22.3,-6.968,-32.6,-15.03,-10.47,9.184,-5.647,-10.42,0,0,0,0,0,0,0,0,0,0,0,0,0,0,0,0
42,-74.08,-43.38,-67.86,-61.4,-73.03,-103.9,-75.97,-42.03,-29.81,-9.209,-44.57,-28.33,-11.31,9.322,-7.824,-11.94,0,0,0,0,0,0,0,0,0,0,0,0,0,0,0,0
43,-81.79,-42.48,-78.13,-64.53,-83.9,-107.5,-79.07,-42.06,-36.7,-12.69,-47.23,-31.05,-5.111,7.793,-10.82,-14.46,0,0,0,0,0,0,0,0,0,0,0,0,0,0,0,0
44,-71.85,-40.34,-63.89,-58.48,-71.85,-96.4,-75.87,-40.69,-30.72,-13.53,-41.76,-25.7,-13.16,0.1157,-11.8,-21.83,0,0,0,0,0,0,0,0,0,0,0,0,0,0,0,0
45,-56.58,-40.92,-54.65,-51.14,-59.8,-79.05,-64.61,-33.36,-7.523,-10.64,-11.43,-11.71,-11.28,2.86,6.637,-7.215,0,0,0,0,0,0,0,0,0,0,0,0,0,0,0,0
46,-50.12,-36.3,-53.5,-46.8,-57.78,-70.96,-57.3,-27.49,-0.3427,-5.208,13.8,-0.4377,11.16,16.7,32.56,23.59,0,0,0,0,0,0,0,0,0,0,0,0,0,0,0,0
47,-41.93,-22.04,-40.75,-33.64,-39.67,-56.18,-37.97,-20.63,8.713,9.239,22.61,17.94,39.64,39.18,60.95,57.18,0,0,0,0,0,0,0,0,0,0,0,0,0,0,0,0
48,-3.213,12.39,-9.335,-5.129,0.9739,-9.936,7.618,8.555,54.14,37.64,60.93,69.43,85.26,79.15,116.4,114.1,0,0,0,0,0,0,0,0,0,0,0,0,0,0,0,0
49,52.64,62.3,19.93,18.58,29.23,35.44,43.11,40.51,84.44,58.17,103.4,110.2,118.6,102.6,156.4,150.9,0,0,0,0,0,0,0,0,0,0,0,0,0,0,0,0
50,63.64,77.45,16.19,13.52,19.28,30.69,33.66,29.27,53.76,40.42,76.8,82.34,90.27,70.56,118.3,112.2,0,0,0,0,0,0,0,0,0,0,0,0,0,0,0,0
51,21.83,37.41,-15.58,-23.22,-16.57,-13.09,-8.64,-16.03,1.53,-5.151,8.401,21.53,36.93,15.55,46.33,51.81,0,0,0,0,0,0,0,0,0,0,0,0,0,0,0,0
52,-10.99,-2.578,-38.84,-61.27,-42.29,-44.91,-45.23,-47.76,-19.79,-32.56,-23.36,-10.1,13.18,-13.37,6.679,20.85,0,0,0,0,0,0,0,0,0,0,0,0,0,0,0,0
53,-14.18,-10.97,-44.6,-67.78,-41.43,-49.22,-53.96,-50.64,-13.52,-30.58,-22.57,-11.93,8.665,-15.19,-7.161,2.55,0,0,0,0,0,0,0,0,0,0,0,0,0,0,0,0
54,-21.27,-18.08,-53.22,-59.84,-39.02,-55,-57.91,-47.87,-18.53,-29.46,-37.01,-14.36,3.047,-9.453,-12.69,-5.709,0,0,0,0,0,0,0,0,0,0,0,0,0,0,0,0
55,-34.3,-27.93,-56.81,-61.09,-44.84,-65.98,-71.85,-50.03,-30.34,-30.5,-49.85,-21.94,2.879,-0.8332,-7.208,0.752,0,0,0,0,0,0,0,0,0,0,0,0,0,0,0,0
56,-39.56,-25.1,-46.24,-63.54,-45.02,-67.01,-75.12,-45.76,-24.25,-20.46,-31.22,-20.92,11.67,12.2,8.017,9.185,0,0,0,0,0,0,0,0,0,0,0,0,0,0,0,0
57,-49.2,-29.95,-48.15,-67.55,-48.83,-72.41,-73.32,-43.94,-22.72,-18.28,-14.47,-16.95,14.96,17.51,20.94,13.89,0,0,0,0,0,0,0,0,0,0,0,0,0,0,0,0
58,-54.56,-44.78,-57.03,-71.4,-56.16,-78.77,-79.18,-50.16,-29.14,-27.26,-17.13,-15.23,10.74,11.61,21.58,17.59,0,0,0,0,0,0,0,0,0,0,0,0,0,0,0,0
59,-41.91,-46.13,-49.48,-65.12,-47.68,-67.93,-73.91,-40.3,-19.64,-23.15,-15.58,-7.284,16.47,10.77,15.49,19.34,0,0,0,0,0,0,0,0,0,0,0,0,0,0,0,0
60,-33.44,-39.04,-44.45,-57.12,-33.2,-61.28,-57.99,-16.34,-13.26,-10.44,-19.06,-5.985,23.63,10.6,3.439,7.865,0,0,0,0,0,0,0,0,0,0,0,0,0,0,0,0
61,-32.71,-31.37,-46.1,-53.23,-32.58,-66.27,-48.86,-4.479,-19.71,-8.671,-40.19,-16.78,15.1,-0.6436,-13.82,-10.73,0,0,0,0,0,0,0,0,0,0,0,0,0,0,0,0
62,-25.77,-23.18,-44.78,-54.29,-38.23,-60.26,-46.11,-5.828,-18.18,-11.62,-54.87,-13.05,11.44,-5.768,-16.41,-10.77,0,0,0,0,0,0,0,0,0,0,0,0,0,0,0,0
63,-25.86,-26.45,-53.62,-63.59,-37.48,-55.72,-55.44,-15.28,-17.6,-11.05,-54.71,-2.967,16.77,-3.579,-13.45,-3.473,0,0,0,0,0,0,0,0,0,0,0,0,0,0,0,0
64,-38.61,-41.17,-58.21,-69.61,-38.64,-68.76,-77.16,-32.53,-27.43,-17.14,-57.1,-17.2,4.541,-15.31,-25.96,-8.111,0,0,0,0,0,0,0,0,0,0,0,0,0,0,0,0
65,-49.17,-53.62,-46.09,-63.65,-42.15,-72.11,-84.63,-41.62,-32.9,-27.27,-64.85,-34.03,-9.348,-27.57,-29.41,-6.865,0,0,0,0,0,0,0,0,0,0,0,0,0,0,0,0
66,-50.76,-54.22,-44.98,-53.7,-33.49,-55,-73.04,-30.65,-34.12,-25.26,-70.24,-32.01,-2.389,-24,-24.88,-1.74,0,0,0,0,0,0,0,0,0,0,0,0,0,0,0,0
67,-43.04,-43.27,-47.31,-44.54,-23.44,-43.73,-63.41,-12.8,-31.39,-17.38,-70.31,-31.62,3.219,-22.88,-40.03,-9,0,0,0,0,0,0,0,0,0,0,0,0,0,0,0,0
68,-29.51,-32.21,-24.8,-33.99,-19.35,-39.02,-52.96,-5.281,-14.63,-15.86,-59.64,-25.91,4.214,-26.03,-40.68,-10.21,0,0,0,0,0,0,0,0,0,0,0,0,0,0,0,0
69,-17.07,-23.14,-5.409,-29.49,-8.331,-25.89,-36.19,-7.385,0.0935,-14.27,-41.04,-0.3639,18.12,-18.26,-7.016,3.557,0,0,0,0,0,0,0,0,0,0,0,0,0,0,0,0
70,-3.311,-7.692,-9.56,-34.57,1.391,-8.497,-20.72,-6.806,4.39,-7.973,-25.28,19.43,34.02,-7.669,18.29,16.6,0,0,0,0,0,0,0,0,0,0,0,0,0,0,0,0
71,16.65,8.853,-4.573,-29.6,10.02,11.9,-2.92,-0.7196,19.17,-2.823,-7.529,27.82,38.04,-3.878,25.08,24.87,0,0,0,0,0,0,0,0,0,0,0,0,0,0,0,0
72,26.77,8.314,6.352,-18.61,21.91,24.11,6.889,-1.546,31.51,-6.482,10.69,37.45,31.68,-4.072,28.62,29.26,0,0,0,0,0,0,0,0,0,0,0,0,0,0,0,0
73,18.12,-9.357,-1.661,-23.47,19.81,19.87,3.196,-7.123,22.99,-14.53,9.823,39.25,30.96,-4.432,29.04,33.16,0,0,0,0,0,0,0,0,0,0,0,0,0,0,0,0
74,16.33,-12.06,-0.9803,-23.08,17.12,23.89,13.83,0.2668,15.01,-10.67,-5.388,39.14,53.92,1.651,33.8,42.23,0,0,0,0,0,0,0,0,0,0,0,0,0,0,0,0
75,21.13,9.66,10.41,-12.46,19.96,29.13,28.44,10.51,8.428,0.7106,-14.55,43.28,76.62,10.42,38.2,46.88,0,0,0,0,0,0,0,0,0,0,0,0,0,0,0,0
76,9.591,23.44,4.862,-13.69,9.018,16.18,24.49,13.64,-1.424,7.152,-18.1,38.91,72.96,15.24,34.78,43.38,0,0,0,0,0,0,0,0,0,0,0,0,0,0,0,0
77,3.838,22.77,7.284,-9.274,7.743,14.39,30.82,23.26,2.096,14.91,-20.85,35.93,68.18,23.99,39.28,45.69,0,0,0,0,0,0,0,0,0,0,0,0,0,0,0,0
78,11.13,20.36,14.45,-5.858,14.68,19.55,40.76,20.51,5.826,19.15,-16.51,38.48,73.44,30.99,48.2,51.66,0,0,0,0,0,0,0,0,0,0,0,0,0,0,0,0
79,1.963,8.738,-5.161,-23.13,-1.041,7.005,26.26,-1.978,1.294,10.35,-7.302,30.37,66.81,22.58,43.47,46.81,0,0,0,0,0,0,0,0,0,0,0,0,0,0,0,0
80,-8.355,-6.38,-14.28,-23.6,-7.134,6.614,18.01,-4.164,3.135,-1.182,-13.24,19.59,52.34,10.46,29.96,34,0,0,0,0,0,0,0,0,0,0,0,0,0,0,0,0
81,-4.876,-15,0.7345,-10.37,7.744,16.64,19.48,1.072,0.1357,-12.18,-39.41,8.721,42.39,4.052,14.71,23.12,0,0,0,0,0,0,0,0,0,0,0,0,0,0,0,0
82,-16.04,-25.1,-0.5114,-21.8,5.48,1.978,1.973,-16.44,-11.99,-22.36,-57.22,-10.67,35.86,0.5102,4.312,18.36,0,0,0,0,0,0,0,0,0,0,0,0,0,0,0,0
83,-38.15,-30.63,-11.42,-32.93,-5.338,-17.68,-12.58,-23.92,-18.1,-21.72,-49.96,-15.84,39.65,6.098,9.05,17.5,0,0,0,0,0,0,0,0,0,0,0,0,0,0,0,0
84,-43.42,-25.91,-15.24,-27.66,-6.406,-22.54,-12.81,-15.04,-15.24,-17.16,-34.11,1.728,48.81,11.97,19.27,10.04,0,0,0,0,0,0,0,0,0,0,0,0,0,0,0,0
85,-34.37,-23.59,-17.97,-25.78,-4.898,-23.57,-17.65,-13.34,-2.927,-18.86,-20.88,17.42,49.29,5.144,28.01,2.815,0,0,0,0,0,0,0,0,0,0,0,0,0,0,0,0
86,-20.09,-18.98,-10.55,-17.14,5.714,-12.09,-16.47,-6.957,14.8,-18.28,-3.446,30.32,54.59,2.291,45.64,15.67,0,0,0,0,0,0,0,0,0,0,0,0,0,0,0,0
87,-3.043,-3.354,1.512,0.3444,20.47,7.253,-6.308,2.958,29.71,-14.71,14.56,46.16,71.06,7.099,61.41,32.57,0,0,0,0,0,0,0,0,0,0,0,0,0,0,0,0
88,5.495,7.094,-2.171,-1.416,15.65,2.473,-5.918,1.196,30.37,-17.48,11.02,47.98,75.31,3.944,57.45,30.01,0,0,0,0,0,0,0,0,0,0,0,0,0,0,0,0
89,2.288,8.724,-12.99,-18.9,-0.3522,-14.72,-7.535,-4.408,9.894,-21.61,-11.25,37.19,68.95,2.678,44.83,23.16,0,0,0,0,0,0,0,0,0,0,0,0,0,0,0,0
90,1.829,17.56,-8.866,-17.83,3.269,-5.691,3.33,-2.866,3.38,-17.07,-15.57,34.02,73.78,9.227,38.58,21.47,0,0,0,0,0,0,0,0,0,0,0,0,0,0,0,0
91,8.548,27.31,7.038,-0.9171,22.31,17.26,15.27,10.08,28.75,-8.296,0.6381,36.23,80.22,9.823,40.02,14.62,0,0,0,0,0,0,0,0,0,0,0,0,0,0,0,0
92,12.7,23.74,16.01,1.905,31.86,24.11,11.84,18.44,37.9,-8.95,5.538,29.74,72.37,7.183,45.37,8.796,0,0,0,0,0,0,0,0,0,0,0,0,0,0,0,0
93,10.9,13.97,19.78,-0.1516,32.83,21.44,0.7405,8.778,21.47,-19.14,-0.2357,16.96,63.73,8.198,47.45,12.44,0,0,0,0,0,0,0,0,0,0,0,0,0,0,0,0
94,3.776,9.179,24.37,7.686,27.58,19.01,3.473,7.407,16.04,-22.31,-2.262,7.983,65.31,8.746,44.5,17.88,0,0,0,0,0,0,0,0,0,0,0,0,0,0,0,0
95,-6.377,7.384,13.82,1.438,6.877,9.744,9.987,16.94,7.129,-20.86,-13.12,0.8436,58.09,1.371,35.14,11.78,0,0,0,0,0,0,0,0,0,0,0,0,0,0,0,0
96,-14.97,-3.832,-8.597,-16.81,-14.15,-4.835,1.432,9.592,-16.05,-32.28,-30.66,-7.501,34.9,-16.18,22.82,-4.978,0,0,0,0,0,0,0,0,0,0,0,0,0,0,0,0
97,-18.74,-18.25,-15.22,-15.22,-16.57,-9.265,0.8111,-0.3791,-17.48,-43.55,-27.12,-6.834,24.17,-24.35,24.14,-12.3,0,0,0,0,0,0,0,0,0,0,0,0,0,0,0,0
98,-13.73,-12.59,-13.52,-6.321,-14.03,-3.415,10.87,-1.675,-7.271,-41.09,-16.93,-1.474,26.24,-19.12,27.04,-14.98,0,0,0,0,0,0,0,0,0,0,0,0,0,0,0,0
99,-10.46,-2.921,-25.91,-14.68,-20.12,-8.167,-0.0082,-9.246,-15.54,-40.31,-29.6,-4.772,15.65,-24.54,9.463,-33.46,0,0,0,0,0,0,0,0,0,0,0,0,0,0,0,0
100,-20.57,-12.84,-32.73,-25.59,-24.65,-19.92,-12.68,-8.635,-16.46,-40.08,-36.12,-2.587,9.701,-29.67,-3.603,-47.39,0,0,0,0,0,0,0,0,0,0,0,0,0,0,0,0
101,-26.32,-16.88,-18.7,-29.13,-24.17,-17.67,-5.291,1.03,-7.261,-36.34,-25.94,6.606,19.44,-20.31,-0.7526,-45.11,0,0,0,0,0,0,0,0,0,0,0,0,0,0,0,0
102,-18.39,-3.771,-12.77,-28.29,-22.51,-7.026,-2.385,-0.3939,-13.64,-41.53,-32.09,4.342,18.99,-20.04,-4.343,-50.45,0,0,0,0,0,0,0,0,0,0,0,0,0,0,0,0
103,-13.81,4.359,-22.7,-15.03,-12.78,0.9013,0.3415,8.749,-13.53,-41.94,-35.82,4.087,15.27,-27.48,-4.969,-55.45,0,0,0,0,0,0,0,0,0,0,0,0,0,0,0,0
104,-17.86,6.583,-20.61,-2.401,-2.996,0.7255,12.78,31.24,-3.131,-30.25,-24.87,8.547,24.35,-26.26,5.101,-43.59,0,0,0,0,0,0,0,0,0,0,0,0,0,0,0,0
105,-25.23,11.2,-6.551,-7.059,-5.401,-10.8,13.2,30.29,-7.989,-30.65,-32.6,-2.45,32.03,-23.87,8.401,-30.48,0,0,0,0,0,0,0,0,0,0,0,0,0,0,0,0
106,-32.49,14.69,-4.199,-12.56,-8.185,-21.06,4.817,16.42,-15.09,-41.14,-42.56,-14.83,34.15,-19.7,5.495,-23.22,0,0,0,0,0,0,0,0,0,0,0,0,0,0,0,0
107,-37.89,12.91,-16.17,-14.07,-12.9,-26.15,0.7518,14.59,-19.09,-43.26,-38.24,-19.07,35.89,-12.14,1.33,-19.68,0,0,0,0,0,0,0,0,0,0,0,0,0,0,0,0
108,-41.96,11.46,-24.51,-17.77,-24.96,-29.81,-0.2919,15.18,-25.99,-38.65,-44.88,-23.57,34.78,-10.31,-3.287,-23.88,0,0,0,0,0,0,0,0,0,0,0,0,0,0,0,0
109,-43.96,13.24,-26.46,-17.58,-27.48,-33.34,-3.774,11.9,-23.86,-37.81,-45.67,-19.51,24.36,-16.19,-3.814,-32.03,0,0,0,0,0,0,0,0,0,0,0,0,0,0,0,0
110,-51.48,-2.138,-39.69,-25.44,-26.81,-48.2,-25.4,0.6414,-21.01,-50.41,-29.26,-18.62,1.883,-29.03,-6.19,-40.83,0,0,0,0,0,0,0,0,0,0,0,0,0,0,0,0
111,-63.36,-29.27,-52.99,-38.44,-32.96,-56.07,-43.81,-12.34,-22.82,-65.26,-31.22,-31.4,-12.6,-40.2,-10.68,-50.57,0,0,0,0,0,0,0,0,0,0,0,0,0,0,0,0
112,-61.24,-29.22,-42.62,-32.34,-28.09,-36.36,-26.38,-8.469,-20.98,-64.14,-44.67,-31.02,-7.216,-42.63,-11.8,-59.2,0,0,0,0,0,0,0,0,0,0,0,0,0,0,0,0
113,-49.37,-11.29,-24.54,-20.99,-12.04,-19.79,-4.885,1.899,-19.95,-56.54,-40.77,-18.76,1.979,-41.13,-14.15,-62.39,0,0,0,0,0,0,0,0,0,0,0,0,0,0,0,0
114,-39.84,0.693,-7.631,-14.44,6.141,-10.53,4.834,14.53,-14.54,-48.16,-34.33,-13.65,16.72,-27.18,-10.66,-48.58,0,0,0,0,0,0,0,0,0,0,0,0,0,0,0,0
115,-24.6,20.77,18.52,1.889,26.48,12.82,24.36,35.53,-4.825,-33.39,-30.59,-0.8418,39.77,-3.726,7.863,-21.87,0,0,0,0,0,0,0,0,0,0,0,0,0,0,0,0
116,-6.997,35.96,33.33,10.66,35.06,25.22,27.31,36.27,1.238,-28.27,-15.47,16.13,44.47,-2.964,22.02,-13.6,0,0,0,0,0,0,0,0,0,0,0,0,0,0,0,0
117,-0.8639,22.48,21.46,-1.893,28.55,17.01,3.165,18.32,12.59,-40.36,-6.354,12.73,27.28,-23.19,15.54,-32.07,0,0,0,0,0,0,0,0,0,0,0,0,0,0,0,0
118,-2.581,5.447,7.192,-11.97,28.03,17.33,-6.965,15.34,25.91,-48.57,-6.135,6.256,15.97,-30.49,7.463,-46.96,0,0,0,0,0,0,0,0,0,0,0,0,0,0,0,0
119,-1.947,3.237,14.81,-8.089,38.56,22.2,-6.245,13.07,28.68,-45.84,5.519,13.37,11.78,-25.91,6.936,-50.14,0,0,0,0,0,0,0,0,0,0,0,0,0,0,0,0
120,-7.677,-5.756,32.85,-5.304,40.51,6.935,-23,-1.599,21.5,-47.34,7.456,10.52,-3.748,-29.39,-3.321,-59.99,0,0,0,0,0,0,0,0,0,0,0,0,0,0,0,0
121,-26.85,-29.87,31.04,-12.34,35.51,-13.26,-43.36,-12.31,19.64,-56.03,-4.704,1.356,-20.41,-35.01,-11.45,-65.12,0,0,0,0,0,0,0,0,0,0,0,0,0,0,0,0
122,-37.53,-49.01,15.67,-18.74,43.28,-11.49,-50.85,-20.47,33.9,-61.72,-4.603,3.763,-20.81,-33.07,-4.272,-55.37,0,0,0,0,0,0,0,0,0,0,0,0,0,0,0,0
123,-39.65,-51.63,11.49,-18.07,45.3,-9.269,-50.45,-22.38,32.64,-62.62,-15.37,-4.408,-17.68,-31.04,-6.97,-58.61,0,0,0,0,0,0,0,0,0,0,0,0,0,0,0,0
124,-53.95,-47.01,9.358,-18.92,28.31,-26.87,-44.54,-13.77,7.387,-64.12,-35.85,-18.01,-22.88,-37.99,-13.48,-74.22,0,0,0,0,0,0,0,0,0,0,0,0,0,0,0,0
125,-60.96,-48.36,3.882,-21.86,23.7,-39.18,-37.8,-12.49,-0.9537,-70.64,-30.95,-10.61,-27.62,-54.63,-4.615,-74.97,0,0,0,0,0,0,0,0,0,0,0,0,0,0,0,0
126,-50.81,-50.06,9.713,-14.96,33.36,-33.51,-28.9,-10.72,-0.19,-75.26,-26.71,-1.292,-20.45,-63.13,-1.378,-69.36,0,0,0,0,0,0,0,0,0,0,0,0,0,0,0,0
127,-37.97,-31.37,18.26,1.113,38.22,-15.6,-6.43,8.291,-6.089,-63.44,-32.95,4.968,-1.506,-48.27,-1.279,-69.45,0,0,0,0,0,0,0,0,0,0,0,0,0,0,0,0
128,-22.3,-10.58,9.161,6.919,36.59,1.075,11.38,22.46,-3.561,-47.1,-33.72,10.59,4.312,-36.57,2.063,-72.86,0,0,0,0,0,0,0,0,0,0,0,0,0,0,0,0
129,-25.58,-23.53,-4.007,1.69,20.83,-8.662,1.84,18.07,-11.08,-46.03,-50.17,-9.67,-12.63,-42.96,-15.46,-80.54,0,0,0,0,0,0,0,0,0,0,0,0,0,0,0,0
130,-49.24,-43.53,5.657,1.611,8.123,-28.39,-16.16,8.051,-26.6,-46.77,-63.13,-31.63,-22.42,-38.52,-35.17,-82.2,0,0,0,0,0,0,0,0,0,0,0,0,0,0,0,0
131,-62.84,-46.42,7.612,-7.2,7.377,-39.76,-30.63,-3.895,-30.24,-43.41,-54.83,-32.63,-23.79,-30.97,-35.34,-82.45,0,0,0,0,0,0,0,0,0,0,0,0,0,0,0,0
132,-82.35,-57.37,-27.28,-25.87,-14.93,-63.44,-47.14,-9.757,-42.36,-49.55,-56.13,-42.95,-33.85,-44.79,-35.32,-95.07,0,0,0,0,0,0,0,0,0,0,0,0,0,0,0,0
133,-98.61,-64.78,-41.54,-26.64,-36.3,-76.61,-52.5,-3.43,-50.76,-53.67,-47.01,-45.99,-33.03,-51.69,-25.25,-99.17,0,0,0,0,0,0,0,0,0,0,0,0,0,0,0,0
134,-75.63,-51.72,-16.84,-23.38,-17.49,-55.15,-43.28,-0.4362,-35.82,-45.37,-19.85,-23.46,-19.58,-41.23,-1.338,-89.81,0,0,0,0,0,0,0,0,0,0,0,0,0,0,0,0
135,-51.27,-41.94,-8.22,-21.77,4.807,-37.72,-30.41,3.543,-29.23,-39.35,-20.92,-12.21,-16.08,-40.02,2.75,-88.01,0,0,0,0,0,0,0,0,0,0,0,0,0,0,0,0
136,-45.88,-34.85,-7.518,-0.9201,4.899,-37.88,-20.83,18.96,-33.33,-40.11,-31.22,-9.324,-14.36,-41.51,-3.86,-81.21,0,0,0,0,0,0,0,0,0,0,0,0,0,0,0,0
137,-34.29,-27.7,1.741,7.772,-1.848,-40.3,-24.63,20.97,-29.47,-43.99,-19.56,1.776,-7.344,-37.57,6.278,-63.87,0,0,0,0,0,0,0,0,0,0,0,0,0,0,0,0
138,-29.74,-32.2,-2.901,-3.075,-8.624,-44.97,-29.26,10.48,-29.45,-49.72,-13.86,4.187,-4.534,-42.02,16.9,-60.34,0,0,0,0,0,0,0,0,0,0,0,0,0,0,0,0
139,-29.65,-29.18,0.7929,7.941,-5.683,-39.42,-12.43,21.14,-31.01,-44.75,-17.52,6.466,-0.6563,-46.35,13.32,-68.92,0,0,0,0,0,0,0,0,0,0,0,0,0,0,0,0
140,-19.26,-15.24,19.36,25.7,2.81,-25.24,8.575,40.34,-26.45,-30.05,-13.95,11.86,4.906,-43.81,6.641,-76.93,0,0,0,0,0,0,0,0,0,0,0,0,0,0,0,0
141,-22.66,-12.73,19.38,27.25,-2.852,-23.97,9.59,37.8,-26.15,-27.16,-10.56,4.953,3.061,-47.81,5.91,-85.6,0,0,0,0,0,0,0,0,0,0,0,0,0,0,0,0
142,-34.2,-16.1,14.48,27.59,-10.38,-23.31,-1.745,23.39,-22.29,-29.95,-6.362,8.494,1.846,-52.17,12.68,-88.03,0,0,0,0,0,0,0,0,0,0,0,0,0,0,0,0
143,-30.03,-17.82,20.74,25.38,-0.7872,-13.56,-11.99,15.74,-12.6,-20.64,-3.583,21.67,6.581,-46.19,18.88,-84.01,0,0,0,0,0,0,0,0,0,0,0,0,0,0,0,0
144,-32.3,-26.21,19.71,19.84,6.725,-19.96,-18.9,14.87,-20.8,-15.36,-16.66,5.132,6.249,-39.2,13.34,-83.93,0,0,0,0,0,0,0,0,0,0,0,0,0,0,0,0
145,-51.14,-38.63,14.95,17.88,-2.684,-38.42,-21.69,10.67,-34.28,-22.96,-27.69,-14.36,2.645,-35.97,3.959,-83.57,0,0,0,0,0,0,0,0,0,0,0,0,0,0,0,0
146,-59.58,-46.27,19.31,15.37,-9.077,-42.01,-20.84,-0.531,-26.25,-29.48,-19.13,1.095,2.143,-37.29,2.82,-82,0,0,0,0,0,0,0,0,0,0,0,0,0,0,0,0
147,-55.51,-45.9,24.26,17.35,-5.564,-37.98,-17.8,-4.071,-16.12,-36.74,-10.95,14.76,-4.918,-46.69,3.996,-89.97,0,0,0,0,0,0,0,0,0,0,0,0,0,0,0,0
148,-51.74,-43.64,27.99,28.85,-1.417,-31.1,-6.87,7.002,-10.75,-45.04,-2.616,14.06,-17.86,-57.15,7.717,-101,0,0,0,0,0,0,0,0,0,0,0,0,0,0,0,0
149,-41.05,-48.91,38.86,38.57,10.34,-13.93,6.573,12.38,1.392,-50.3,14.73,27.43,-21.58,-64.18,24.31,-100.4,0,0,0,0,0,0,0,0,0,0,0,0,0,0,0,0
150,-25.62,-52.93,45.36,36.42,24.54,-4.16,5.269,4.35,4.035,-60.69,18.21,36.1,-15.19,-72.2,40.07,-94.81,0,0,0,0,0,0,0,0,0,0,0,0,0,0,0,0
151,-16.77,-43.48,37.15,28.36,25.26,-4.949,-0.5716,2.538,3.984,-68.42,11.45,24.46,-9.831,-77.46,33.7,-95.34,0,0,0,0,0,0,0,0,0,0,0,0,0,0,0,0
152,-14.6,-39.53,29.55,21.37,18.2,-4.145,0.787,4.006,13.79,-65.62,12.37,18.08,-8.891,-71.95,22.35,-90.24,0,0,0,0,0,0,0,0,0,0,0,0,0,0,0,0
153,-22.35,-53.56,24.55,8.118,10.32,-12.36,-7.269,-9.797,9.498,-63.84,7.785,18.73,-4.599,-57.54,31.5,-70.21,0,0,0,0,0,0,0,0,0,0,0,0,0,0,0,0
154,-32.68,-57.57,10.53,-10.04,3.32,-24.06,-20.22,-23.56,-2.959,-61.62,1.172,13.81,2.645,-46.02,42.08,-58.68,0,0,0,0,0,0,0,0,0,0,0,0,0,0,0,0
155,-30.51,-47.13,2.169,-15.53,5.533,-20.1,-17.5,-20.1,0.2724,-54.98,5.529,11.85,4.417,-41.62,36.88,-66.9,0,0,0,0,0,0,0,0,0,0,0,0,0,0,0,0
156,-18.51,-45.6,13.03,-2.941,18.36,-5.415,-5.206,-9.177,11.23,-50.42,12.13,17.17,6.976,-37.48,36.41,-74.76,0,0,0,0,0,0,0,0,0,0,0,0,0,0,0,0
157,0.3305,-40.37,23.83,8.5,29.59,9.916,5.614,2.667,20,-47.43,17.48,23.31,12.69,-37.78,38.81,-83.45,0,0,0,0,0,0,0,0,0,0,0,0,0,0,0,0
158,17.41,-20.68,22.4,5.29,30.87,21.12,18.28,12.91,23.51,-44.72,19.45,32.1,16.21,-43.79,33.42,-95.73,0,0,0,0,0,0,0,0,0,0,0,0,0,0,0,0
159,24.19,-1.751,32.75,15.88,38.02,35.29,40.89,22.77,30.27,-39.08,24.64,49.79,30.14,-41.2,47.99,-86.45,0,0,0,0,0,0,0,0,0,0,0,0,0,0,0,0
160,38.52,18.63,63.55,53.99,61.99,64.44,71.87,39.37,52.67,-27.88,52.24,76.24,55,-31.26,85.62,-59.47,0,0,0,0,0,0,0,0,0,0,0,0,0,0,0,0
161,63.11,42.34,89.96,82.51,86.58,98.27,101.2,55.25,82.28,-15.76,91.62,109.9,78.06,-16.77,120,-32.57,0,0,0,0,0,0,0,0,0,0,0,0,0,0,0,0
162,84.8,65.53,113.4,99.39,107.1,124,127.7,68.57,112.2,-0.2437,122.3,139.3,104.1,10.22,150.9,3.276,0,0,0,0,0,0,0,0,0,0,0,0,0,0,0,0
163,104.8,90.88,133.1,118.1,120,134.6,142.5,85.03,126.4,13.75,137.6,139.9,119.4,28.23,159.2,24.47,0,0,0,0,0,0,0,0,0,0,0,0,0,0,0,0
164,101.9,96.69,117,107.7,104.5,117.8,127.7,84.96,94.26,8.576,111.3,110.8,99.03,11.23,112.9,-8.052,0,0,0,0,0,0,0,0,0,0,0,0,0,0,0,0
165,58.02,64.6,79.03,69.89,64.74,77.74,89.47,59.62,31.92,-13.85,39.41,72.57,57.7,-25.61,43.27,-66.08,0,0,0,0,0,0,0,0,0,0,0,0,0,0,0,0
166,8.355,21.59,50.99,37.3,26.91,39.21,55.37,39.18,-8.477,-32.46,-14.52,39.13,25.24,-54.03,2.58,-102.3,0,0,0,0,0,0,0,0,0,0,0,0,0,0,0,0
167,-7.59,-0.013,29.78,19.97,12.95,28.31,47.53,41.83,-7.614,-33.67,-13.43,24.76,11.3,-63.65,-7.633,-115.6,0,0,0,0,0,0,0,0,0,0,0,0,0,0,0,0
168,5.915,-1.331,29.06,25.98,22.19,41.64,58.49,48.22,7.845,-27.46,3.356,28.58,8.328,-62.75,-7.89,-116.5,0,0,0,0,0,0,0,0,0,0,0,0,0,0,0,0
169,18.64,1.033,45.03,39.33,25.66,49.57,67.69,44.99,12.08,-27.52,11.67,33.41,7.805,-59.79,-1.998,-106.5,0,0,0,0,0,0,0,0,0,0,0,0,0,0,0,0
170,20.8,4.426,47.31,41.07,23.31,54.12,80.71,50.03,15.31,-26.62,18.2,38.92,12.31,-52.16,9.772,-94.78,0,0,0,0,0,0,0,0,0,0,0,0,0,0,0,0
171,27.81,9.752,49.73,52.4,35.11,66.97,95.65,64.54,24.25,-25.48,15.11,44.21,18.4,-44.75,19.04,-87.91,0,0,0,0,0,0,0,0,0,0,0,0,0,0,0,0
172,36.03,8.288,57.83,67.89,40.93,67.04,91.55,65.64,26.39,-33.34,15.79,45.75,18.97,-43.51,24.2,-82.65,0,0,0,0,0,0,0,0,0,0,0,0,0,0,0,0
173,31.25,1.628,50.76,59.96,32.72,54.48,77.66,61.25,29.39,-37.01,35.85,55.66,22.55,-40.01,30.78,-78.13,0,0,0,0,0,0,0,0,0,0,0,0,0,0,0,0
174,24.47,-0.6539,43.36,44.18,36.22,51.83,68.72,61.15,43.8,-29.18,50.99,70.07,34.47,-29.82,39.62,-72.39,0,0,0,0,0,0,0,0,0,0,0,0,0,0,0,0
175,30.69,1.717,40.24,36.72,46.35,52.04,57.2,48.35,55.85,-21.03,55.58,74.33,42.16,-20.89,45.06,-67.68,0,0,0,0,0,0,0,0,0,0,0,0,0,0,0,0
176,36.7,-1.765,22.45,24.2,42.58,39.88,39.92,28.9,51.06,-20.63,60.71,67.19,30.15,-27.22,36.37,-79.76,0,0,0,0,0,0,0,0,0,0,0,0,0,0,0,0
177,22.89,-19.8,5.189,5.973,33.3,23.05,19.88,18.51,35.96,-32.42,53.78,46.55,2.975,-49.5,17.96,-103.6,0,0,0,0,0,0,0,0,0,0,0,0,0,0,0,0
178,2.498,-40.24,7.063,0.0442,31.51,18.23,8.383,16.88,28.48,-44.56,35.85,20.97,-16.61,-64.64,11.4,-110.4,0,0,0,0,0,0,0,0,0,0,0,0,0,0,0,0
179,-4.272,-50.61,16.48,8.78,33.45,25.03,14.5,28.63,32.2,-43.48,24.32,8.277,-21.44,-65.68,14.92,-102.7,0,0,0,0,0,0,0,0,0,0,0,0,0,0,0,0
180,-2.379,-51.38,21.55,15.7,35.31,25.73,20.04,42.27,37.53,-43.32,24.91,5.09,-19.41,-67.7,9.801,-103.9,0,0,0,0,0,0,0,0,0,0,0,0,0,0,0,0
181,0.7446,-40.93,19.15,10.08,33.93,15,10.58,40.1,36.76,-49.53,30.03,0.6349,-12.6,-66.51,1.53,-108,0,0,0,0,0,0,0,0,0,0,0,0,0,0,0,0
182,1.171,-30.56,9.704,-2.808,25.55,9.824,2.496,36.29,30.68,-45.38,29.02,-0.5809,-2.55,-54.58,4.532,-98.66,0,0,0,0,0,0,0,0,0,0,0,0,0,0,0,0
183,3.044,-25.58,-0.3847,-8.522,20.36,18.47,7.38,39.56,29.87,-35.59,28.98,4.944,5.75,-47.39,12.4,-86.58,0,0,0,0,0,0,0,0,0,0,0,0,0,0,0,0
184,14.04,-19.73,-7.791,-9.113,22.36,22.29,8.518,37.16,31.76,-37.2,31.08,5.029,2.203,-56.17,12.2,-87.4,0,0,0,0,0,0,0,0,0,0,0,0,0,0,0,0
185,17.06,-29.98,-11.35,-19.89,24.46,16.09,-2.696,29.73,28.75,-43.78,22.23,-4.712,-12.43,-69.45,5.852,-92.9,0,0,0,0,0,0,0,0,0,0,0,0,0,0,0,0
186,7.33,-46.15,-10.9,-32.08,28.02,15.77,-9.544,23.63,26.92,-45.28,12.9,-11.04,-18.81,-74.74,-0.4989,-93.68,0,0,0,0,0,0,0,0,0,0,0,0,0,0,0,0
187,2.48,-40.32,-14.46,-35.23,23.68,10.88,-9.333,18.21,19.46,-46.17,10.11,-13.29,-14.81,-73.92,-6.439,-96.9,0,0,0,0,0,0,0,0,0,0,0,0,0,0,0,0
188,-1.266,-37.43,-15.09,-33.97,12.57,-1.954,-9.278,16.28,7.775,-44.02,5.295,-18.26,-9.484,-68.54,-7.674,-99.87,0,0,0,0,0,0,0,0,0,0,0,0,0,0,0,0
189,-3.673,-46.31,-4.977,-27.03,13.82,-2.864,-6.732,18.87,8.572,-38.24,4.29,-24.37,-3.579,-60.39,-4.353,-95.39,0,0,0,0,0,0,0,0,0,0,0,0,0,0,0,0
190,-0.6062,-44.46,-9.769,-27.12,12.22,-5.688,-9.005,25.31,11.12,-41.73,6.251,-31.13,-6.387,-59.42,-2.731,-94.01,0,0,0,0,0,0,0,0,0,0,0,0,0,0,0,0
191,-0.7788,-40.82,-20.13,-32.13,5.955,-10.92,-9.978,39.32,13.5,-45.79,7.785,-27.41,-10.44,-59.42,1.218,-99.65,0,0,0,0,0,0,0,0,0,0,0,0,0,0,0,0
192,5.069,-36.7,0.8036,-16.34,18.88,4.299,3.316,51.27,23.15,-36.5,10.01,-14.78,-1.411,-51.27,4.658,-105.3,0,0,0,0,0,0,0,0,0,0,0,0,0,0,0,0
193,14.67,-29.83,17.28,-1.418,26.99,13.37,9.361,48.68,21.69,-31.8,6.691,-15.28,1.499,-50.13,0.4099,-109,0,0,0,0,0,0,0,0,0,0,0,0,0,0,0,0
194,17.31,-31.36,6.158,-5.759,24.68,9.719,6.217,46.94,22.6,-35.03,16.61,-10.86,-1.139,-52.63,4.431,-101.5,0,0,0,0,0,0,0,0,0,0,0,0,0,0,0,0
195,30.8,-27.96,9.35,-6.353,40.16,22.93,12.43,53.38,39.76,-28.26,40.78,7.349,9.191,-40.63,17.68,-85.24,0,0,0,0,0,0,0,0,0,0,0,0,0,0,0,0
196,41.23,-24.69,16.34,-9.457,43.18,24.08,6.489,52.84,33.12,-21.8,32.35,-6.17,11.1,-30.46,12.55,-82.73,0,0,0,0,0,0,0,0,0,0,0,0,0,0,0,0
197,20.11,-39.55,0.024,-18.82,16.43,-6.644,-17.34,53.09,9.316,-23.46,8.036,-36.46,4.524,-27.45,0.3981,-85.41,0,0,0,0,0,0,0,0,0,0,0,0,0,0,0,0
198,-0.7692,-47.78,-17,-25.18,1.94,-28.85,-31.55,58.5,15.07,-19.96,19.63,-30.61,15.5,-16.78,11.22,-74.42,0,0,0,0,0,0,0,0,0,0,0,0,0,0,0,0
199,0.795,-47.13,-24.76,-37.38,5.405,-32.67,-35.04,53.42,26.6,-20.3,31.75,-20.01,17.99,-22.28,21.15,-70.41,0,0,0,0,0,0,0,0,0,0,0,0,0,0,0,0
200,0.8096,-60.64,-22.84,-33.6,4.516,-33.65,-30.84,48.21,16.75,-31.55,17.04,-32.19,0.8845,-46.04,10.77,-75.83,0,0,0,0,0,0,0,0,0,0,0,0,0,0,0,0
201,4.675,-62.73,-10.79,-10.55,7.793,-24.29,-17.08,52.83,21.98,-32.76,21.69,-27.11,2.404,-45.2,11.13,-66.5,0,0,0,0,0,0,0,0,0,0,0,0,0,0,0,0
202,23.07,-42.91,-2.861,-6.663,20.08,-12.15,-11.54,62.03,39.11,-25.67,41.73,-4.846,11.47,-33.68,25.51,-61.52,0,0,0,0,0,0,0,0,0,0,0,0,0,0,0,0
203,24.42,-39.16,0.201,-10.52,20.25,-17.67,-16.88,76.24,27.35,-27.42,37.36,2.807,6.977,-36.96,32.9,-71.61,0,0,0,0,0,0,0,0,0,0,0,0,0,0,0,0
204,12.32,-43.27,-2.78,-13.09,8.43,-24.49,-17.21,73.46,17.98,-24.69,32.54,5.701,16.72,-25.72,40.91,-66.57,0,0,0,0,0,0,0,0,0,0,0,0,0,0,0,0
205,20.9,-29.13,-11.59,-33.24,6.991,-16.7,-17.33,54.22,34.95,-12.32,41.2,6.279,27.2,-10.96,41.03,-60.59,0,0,0,0,0,0,0,0,0,0,0,0,0,0,0,0
206,21.68,-29.99,-13.07,-44,6.541,-19.42,-27.87,58.54,26.84,-11.03,29.71,-11.35,8.15,-23.22,18.98,-77.66,0,0,0,0,0,0,0,0,0,0,0,0,0,0,0,0
207,-2.868,-54.39,-17.75,-41.92,-6.609,-34.38,-38.57,66.52,-2.665,-21.46,7.565,-30.62,-9.335,-37.72,-0.8639,-90.84,0,0,0,0,0,0,0,0,0,0,0,0,0,0,0,0
208,-9.193,-61.01,-22.11,-50.78,-8.662,-28.43,-36.15,48.16,-4.531,-31.05,6.664,-31.18,-11.6,-46.81,-6.806,-93.41,0,0,0,0,0,0,0,0,0,0,0,0,0,0,0,0
209,2.167,-54.55,1.278,-38.73,9.566,-7.806,-23.97,39.8,5.561,-36.81,14.37,-16.99,-19.56,-60.24,-9.193,-100.9,0,0,0,0,0,0,0,0,0,0,0,0,0,0,0,0
210,2.933,-58.12,20.76,-12.32,17.72,-8.159,-19.1,44.02,0.513,-39.28,5.804,-8.432,-31.44,-65.37,-15.68,-108.7,0,0,0,0,0,0,0,0,0,0,0,0,0,0,0,0
211,-6.378,-63.96,-1.405,-23.19,2.486,-27.18,-29.79,33.39,-13.56,-43.26,-17.14,-25.81,-42.66,-69.72,-36.96,-115.5,0,0,0,0,0,0,0,0,0,0,0,0,0,0,0,0
212,-22.26,-69.03,-22.04,-40.47,-3.427,-30.02,-39.25,28.5,-20.76,-46.14,-29.35,-43.92,-42.83,-73.88,-53.75,-111.8,0,0,0,0,0,0,0,0,0,0,0,0,0,0,0,0
213,-25.13,-67.48,-10.21,-31.99,12.16,-17.99,-38.31,33.67,-15.47,-42.57,-25.33,-36.61,-25.68,-64.6,-45.58,-92.25,0,0,0,0,0,0,0,0,0,0,0,0,0,0,0,0
214,-14.74,-54.4,-2.087,-29.37,11.06,-21.43,-37.4,31.72,-22.89,-39.89,-28.91,-35.59,-15.32,-58.33,-38.84,-81.3,0,0,0,0,0,0,0,0,0,0,0,0,0,0,0,0
215,-18.27,-44.51,-5.41,-23.07,-1.625,-24.52,-31.58,38.06,-39.63,-40.47,-32.34,-45.51,-17.44,-59.21,-41.58,-80.81,0,0,0,0,0,0,0,0,0,0,0,0,0,0,0,0
216,-18.18,-43.73,5.506,-2.882,7.77,-11.46,-23.51,44.13,-27.91,-46.12,-17.91,-38.54,-23.95,-59.9,-38.48,-79.92,0,0,0,0,0,0,0,0,0,0,0,0,0,0,0,0
217,-6.532,-51.79,17.93,-0.6671,16.44,-5.643,-28.26,29.14,-2.269,-58.34,-3.517,-31.08,-35.27,-66.9,-36.98,-85.23,0,0,0,0,0,0,0,0,0,0,0,0,0,0,0,0
218,-3.273,-61.03,20.62,1.434,19.41,4.294,-27.68,23.97,9.582,-61.93,4.2,-34.33,-35.34,-67.78,-32.15,-84.63,0,0,0,0,0,0,0,0,0,0,0,0,0,0,0,0
219,5.882,-56.81,27.97,13.2,37.58,20.51,-20.77,34.69,14.51,-59.84,7.82,-36.03,-31.56,-63.34,-16.86,-75.55,0,0,0,0,0,0,0,0,0,0,0,0,0,0,0,0
220,11.98,-56.25,27.23,-1.201,44.17,10.42,-32.88,29.46,15.63,-65.49,6.679,-35.16,-39.26,-69.23,-6.187,-73.04,0,0,0,0,0,0,0,0,0,0,0,0,0,0,0,0
221,3.922,-65.94,13.26,-13.12,36.73,2.922,-35.45,26.64,20.36,-63.98,17.21,-22.63,-34.34,-69.04,-2.467,-67.11,0,0,0,0,0,0,0,0,0,0,0,0,0,0,0,0
222,17.46,-57.86,17.62,8.218,43.95,20.89,-10.81,40.22,26.91,-53.73,23.39,-10.33,-24.17,-62.03,-6.025,-62.05,0,0,0,0,0,0,0,0,0,0,0,0,0,0,0,0
223,33.56,-45.39,35.07,21.74,47.46,18.89,-5.342,41.28,14.55,-51.8,3.377,-23.01,-33.04,-65.62,-18.07,-69.75,0,0,0,0,0,0,0,0,0,0,0,0,0,0,0,0
224,13.21,-55.72,27.08,12.14,32.54,-6.423,-25.72,34.17,-0.8589,-52.69,-4.911,-35.91,-35.23,-66.76,-18.52,-66.27,0,0,0,0,0,0,0,0,0,0,0,0,0,0,0,0
225,-4.672,-65.05,3.165,-5.576,23.87,-16.67,-35.3,30.54,5.072,-48.16,8.33,-27.8,-21.82,-59.63,-4.913,-49.71,0,0,0,0,0,0,0,0,0,0,0,0,0,0,0,0
226,2.998,-58.23,-3.16,-25.08,30.71,-9.663,-33.06,17.95,12.95,-42.04,6.007,-19.65,-15.88,-56.17,1.093,-44.71,0,0,0,0,0,0,0,0,0,0,0,0,0,0,0,0
227,6.858,-56.29,-2.469,-29.82,35.22,-4.235,-35.45,7.657,8.879,-39.75,-1.333,-19.53,-19.59,-55.5,-3.182,-49.17,0,0,0,0,0,0,0,0,0,0,0,0,0,0,0,0
228,3.548,-64.28,-8.528,-26.02,28.94,-7.906,-41.61,9.597,4.037,-42.82,3.509,-20.93,-25.46,-54.71,-9.273,-52.42,0,0,0,0,0,0,0,0,0,0,0,0,0,0,0,0
229,2.442,-67.56,-6.388,-32.53,22.67,-12.71,-41.74,11.39,-4.088,-42.98,-0.7321,-24.75,-22.55,-51.04,-12.66,-47.17,0,0,0,0,0,0,0,0,0,0,0,0,0,0,0,0
230,-1.154,-57.76,-4.716,-35.25,21.09,-11.24,-32.43,10.03,-14.26,-40.46,-10.17,-30.02,-9.068,-42.01,-8.713,-35.54,0,0,0,0,0,0,0,0,0,0,0,0,0,0,0,0
231,-4.32,-43.05,-12.6,-28.01,19.07,-6.918,-24.72,2.482,-11.63,-42.63,-9.197,-36.34,-5.179,-34.49,-4.566,-34.6,0,0,0,0,0,0,0,0,0,0,0,0,0,0,0,0
232,-8.093,-43.64,-9.425,-27.78,13.3,-5.471,-28.11,-12.11,-8.975,-43.66,-15.31,-45.96,-10.82,-34.61,-10.02,-38.18,0,0,0,0,0,0,0,0,0,0,0,0,0,0,0,0
233,-17.22,-52.84,0.1721,-30.47,7.887,-5.236,-31.53,-18.75,-17.88,-42.33,-32.18,-54.23,-11.51,-44.8,-20.06,-37.09,0,0,0,0,0,0,0,0,0,0,0,0,0,0,0,0
234,-19.92,-43.96,6.59,-22.29,16.82,6.111,-21.4,-11.31,-16.63,-42.95,-36.5,-49.04,-14.82,-60.78,-26.93,-46.07,0,0,0,0,0,0,0,0,0,0,0,0,0,0,0,0
235,-11.91,-32.3,20.81,-11.02,32.05,24.76,-4.696,0.9182,-7.112,-40.68,-25.52,-28.35,-18.91,-68.36,-22.19,-52.4,0,0,0,0,0,0,0,0,0,0,0,0,0,0,0,0
236,-1.191,-34.92,29.5,-4.207,29.43,30.34,9.975,9.304,-10.01,-35.93,-16.16,-12.93,-10.29,-64.94,-5.593,-40.45,0,0,0,0,0,0,0,0,0,0,0,0,0,0,0,0
237,6.823,-28.12,21.99,-1.374,14.59,23.74,20.77,7.463,-18.59,-32.71,-17.61,-17.39,-1.559,-60.93,0.6234,-34.39,0,0,0,0,0,0,0,0,0,0,0,0,0,0,0,0
238,2.965,-17.73,15.32,-6.241,6.554,19.51,22.35,-2.974,-20.9,-28.92,-20.08,-23.03,-0.9342,-55.55,-6.511,-35.54,0,0,0,0,0,0,0,0,0,0,0,0,0,0,0,0
239,-0.6092,-20.77,17.52,-4.065,14.72,25.03,23.6,-4.688,-12.22,-25.18,-11.9,-16.26,4.933,-46.69,-5.84,-27.64,0,0,0,0,0,0,0,0,0,0,0,0,0,0,0,0
240,8.283,-18.68,21.76,11.16,27.49,31.54,28.96,5.814,0.6383,-21.49,-5.434,-13.14,10.95,-43.16,-5.151,-26.33,0,0,0,0,0,0,0,0,0,0,0,0,0,0,0,0
241,6.474,-16.02,20.47,12,23.65,27.88,23.45,8.573,5.572,-14.08,-7.156,-13.6,8.407,-45.27,-13.78,-35.88,0,0,0,0,0,0,0,0,0,0,0,0,0,0,0,0
242,2.827,-22.46,20.63,7.55,22.61,31.13,21.98,11,7.813,-6.722,-10.09,-6.844,4.962,-49.91,-18.32,-46.34,0,0,0,0,0,0,0,0,0,0,0,0,0,0,0,0
243,15.59,-20.13,27.76,16.21,37.76,42.67,37.63,26.28,3.419,-4.605,-21.38,-9.877,-1.576,-57.93,-21.34,-60.91,0,0,0,0,0,0,0,0,0,0,0,0,0,0,0,0
244,15.84,-11.52,27.23,9.702,40.81,39.41,37.96,26.21,-7.484,-2.392,-29.96,-24.32,-11.63,-59.36,-26,-69.5,0,0,0,0,0,0,0,0,0,0,0,0,0,0,0,0
245,11.87,-6.368,18.67,-3.897,34.46,34.94,20.5,10.33,-4.209,0.5397,-24.72,-26.28,-14.74,-53.57,-24.84,-67.17,0,0,0,0,0,0,0,0,0,0,0,0,0,0,0,0
246,22.75,-7.418,10.71,4.422,32.69,39.87,18.43,13.15,1.361,-1.347,-23.2,-12.89,-8.246,-50.45,-20.31,-60.37,0,0,0,0,0,0,0,0,0,0,0,0,0,0,0,0
247,21.45,-13.09,10.06,14.71,30.6,43.54,30.74,27.08,0.7222,-0.2335,-14.41,4.615,5.341,-42.03,-14.45,-41.91,0,0,0,0,0,0,0,0,0,0,0,0,0,0,0,0
248,19.16,-4.315,32.6,20.85,39.62,54.26,38.48,30.46,10.71,7.102,0.2787,4.395,10.07,-33.08,-16.33,-29.76,0,0,0,0,0,0,0,0,0,0,0,0,0,0,0,0
249,27.15,3.556,55.62,29.07,52.16,62.32,36.86,22.97,13.91,7.667,-11.53,-20.91,-4.483,-40.35,-28.73,-42.42,0,0,0,0,0,0,0,0,0,0,0,0,0,0,0,0
250,19.74,-12.53,51.46,26.16,53.1,59.34,35.19,11.78,10.45,-0.5264,-19.66,-30.59,-16.35,-49.78,-31.01,-52.04,0,0,0,0,0,0,0,0,0,0,0,0,0,0,0,0
251,20.51,-18.32,49.53,23.16,59.7,68.26,42.38,10.22,24.83,-10.39,-6.525,-18.49,-20.47,-53.02,-29.15,-54.8,0,0,0,0,0,0,0,0,0,0,0,0,0,0,0,0
252,39.99,-10.58,53.14,23.82,64.29,76.53,43.82,10.79,30.25,-18.95,-15.65,-23.19,-29.28,-60.64,-39.31,-63.85,0,0,0,0,0,0,0,0,0,0,0,0,0,0,0,0
253,39.47,-20.81,37.93,11.6,49.06,64.22,30.98,0.2363,15.37,-21.28,-28.24,-27.56,-26.2,-61.06,-42.11,-56.05,0,0,0,0,0,0,0,0,0,0,0,0,0,0,0,0
254,31.77,-23.17,30.07,4.902,40.3,56.54,25.72,-5.957,14.41,-14.86,-13.56,-9.01,-7.78,-47.17,-30.79,-36.91,0,0,0,0,0,0,0,0,0,0,0,0,0,0,0,0
255,41.21,0.2498,42,16.38,49.9,62.69,37.66,-2.15,27.84,-1.116,-5.361,6.708,7.386,-32.7,-18.15,-29.51,0,0,0,0,0,0,0,0,0,0,0,0,0,0,0,0
256,47.74,19.77,43.62,21.99,51.71,63.91,51.94,4.251,35.29,12.41,-9.262,16.81,21.51,-22.67,-7.824,-20.34,0,0,0,0,0,0,0,0,0,0,0,0,0,0,0,0
257,44.89,25.95,34.34,18.27,40.63,54.9,58.35,11.96,30.37,13.45,-5.938,26.2,31.16,-18.38,-8.79,-13.63,0,0,0,0,0,0,0,0,0,0,0,0,0,0,0,0
258,40.84,26.73,29.58,18.06,33.94,45.55,57.33,9.23,21.3,8.967,0.2222,22.52,31.09,-14.38,-11.94,-15.18,0,0,0,0,0,0,0,0,0,0,0,0,0,0,0,0
259,42.36,32.24,27.59,16.69,38.58,52.26,55.86,-0.1837,31.94,13.44,13.84,23.04,38.36,-0.5098,3.795,-3.683,0,0,0,0,0,0,0,0,0,0,0,0,0,0,0,0
260,57.58,46.55,30.73,12.84,53.15,69.01,54.51,0.9915,53.36,17.2,30.06,33.64,43.95,7.262,20.05,6.417,0,0,0,0,0,0,0,0,0,0,0,0,0,0,0,0
261,66.28,44.54,36.7,8.75,64.54,68.94,43.16,0.4894,52.53,13.29,29.84,31.47,34.9,2.166,20.54,6.172,0,0,0,0,0,0,0,0,0,0,0,0,0,0,0,0
262,59.27,29.6,37.62,4.186,63.91,62.87,32.37,-8.2,48.05,20.22,28.99,32.2,42.19,12.34,25.68,22.63,0,0,0,0,0,0,0,0,0,0,0,0,0,0,0,0
263,67.09,38.86,44.4,11.5,69.1,71.03,36.36,-8.244,60.44,39.3,41.39,46.19,62.7,33.76,38.04,38.55,0,0,0,0,0,0,0,0,0,0,0,0,0,0,0,0
264,76.05,49.51,47.92,18.39,74.01,65.8,30.95,-9.029,56.39,44.86,40.52,41.35,57.42,36.13,40.32,34.75,0,0,0,0,0,0,0,0,0,0,0,0,0,0,0,0
265,51.77,29.18,21.68,-0.9026,55.97,40.43,7.749,-23,31.79,36.5,20.78,22.38,40.48,27.02,32.33,33.43,0,0,0,0,0,0,0,0,0,0,0,0,0,0,0,0
266,27.28,11.31,1.242,-13.19,45.3,31.22,-0.282,-28.83,23.99,33.07,12.76,18.01,32.05,19,23.44,29.47,0,0,0,0,0,0,0,0,0,0,0,0,0,0,0,0
267,29.86,11.9,23.59,4.501,61.9,40.46,10.62,-23.65,38.7,32.34,22.74,23.19,24.42,10.34,24.41,21.35,0,0,0,0,0,0,0,0,0,0,0,0,0,0,0,0
268,38.41,12.82,41.7,8.445,70,50.42,17.79,-29.7,54.35,32.14,26.85,25.47,27.36,9.956,30.17,26.32,0,0,0,0,0,0,0,0,0,0,0,0,0,0,0,0
269,41.25,12.39,22.26,-10.25,55.32,51.87,12.97,-37.31,44.23,34.92,7.625,11.86,29.6,7.793,15.14,18.71,0,0,0,0,0,0,0,0,0,0,0,0,0,0,0,0
270,28.51,5.21,-1.941,-21.52,31.12,35.18,-0.047,-28.54,10.25,33.51,-22.09,-14.61,12.76,-6.62,-13.12,-7.297,0,0,0,0,0,0,0,0,0,0,0,0,0,0,0,0
271,4.806,-1.719,-8.379,-24.33,3.645,16.67,-5.627,-14.31,-4.515,35.81,-32.86,-22.53,2.658,-10.67,-25.36,-14.91,0,0,0,0,0,0,0,0,0,0,0,0,0,0,0,0
272,-4.711,1.619,-6.592,-23.01,-19.68,6.083,-4.559,-5.088,-2.176,45.33,-30.65,-18.37,-0.0598,-7.787,-33.93,-14.65,0,0,0,0,0,0,0,0,0,0,0,0,0,0,0,0
273,-7.926,-9.069,-8.188,-16.43,-27.08,-6.031,-7.557,0.799,-11.83,44.47,-34.38,-23.54,-11.26,-16.51,-46.75,-26.57,0,0,0,0,0,0,0,0,0,0,0,0,0,0,0,0
274,-8.653,-19.32,-6.607,-6.584,-14.33,-0.4596,2.811,9.361,-5.963,40.07,-24.86,-13.44,-5.737,-15.55,-36.45,-26.09,0,0,0,0,0,0,0,0,0,0,0,0,0,0,0,0
275,7.15,5.5,2.245,0.6528,-4.808,16.95,18.43,18.87,18.68,44.7,-3.453,10.86,9.19,-3.781,-14.19,-10.91,0,0,0,0,0,0,0,0,0,0,0,0,0,0,0,0
276,12.59,20.35,-2.702,-10.36,-14.58,9.744,5.885,9.601,18.67,40.81,-3.363,13.24,-0.4228,-9.663,-14.16,-7.546,0,0,0,0,0,0,0,0,0,0,0,0,0,0,0,0
277,-6.226,-5.423,-22.2,-32.2,-21.87,-7.833,-18.55,-13.11,3.746,24.96,-12.16,2.942,-14.17,-17.89,-21.89,-12.37,0,0,0,0,0,0,0,0,0,0,0,0,0,0,0,0
278,-16.3,-22.32,-33.72,-42.36,-21.68,-14.28,-29.66,-19.22,5.588,16.42,-5.629,1.733,-13.42,-8.63,-19.25,-11.49,0,0,0,0,0,0,0,0,0,0,0,0,0,0,0,0
279,-13.04,-20.22,-39.96,-47.8,-24.77,-18.96,-33.29,-15.93,13.88,15.52,0.0625,-3.039,-21.44,-7.98,-21.48,-16.65,0,0,0,0,0,0,0,0,0,0,0,0,0,0,0,0
280,-13.26,-31.26,-42.31,-52.8,-20.14,-16.98,-27.55,-17.41,19.64,13.3,3.599,-9.548,-36.47,-21.29,-22.98,-29.17,0,0,0,0,0,0,0,0,0,0,0,0,0,0,0,0
281,-2.809,-37.2,-24.32,-36.28,0.7367,0.8648,-8.4,-5.339,41.31,17.41,28.81,7.878,-31.03,-17.02,-1.212,-21.67,0,0,0,0,0,0,0,0,0,0,0,0,0,0,0,0
282,25.99,-16.95,6.493,-0.1134,30.72,24.94,14.98,21.27,76.91,35.34,71.09,43.47,-3.338,8.245,41.63,19.17,0,0,0,0,0,0,0,0,0,0,0,0,0,0,0,0
283,51.37,10.9,30.52,25.51,51.44,45.26,37.16,42.07,96.74,58.64,105.3,72.47,33.66,37.76,91.08,71.45,0,0,0,0,0,0,0,0,0,0,0,0,0,0,0,0
284,68.87,39.2,45.68,31.78,51.48,62.4,52.06,49.26,92.33,71.13,106.7,83.69,55.62,53.88,104.9,85.16,0,0,0,0,0,0,0,0,0,0,0,0,0,0,0,0
285,66.56,45.05,37.14,19.83,28.95,54.47,35.56,31.97,54.64,54.24,50.24,51.67,26.17,25.85,38.42,31.5,0,0,0,0,0,0,0,0,0,0,0,0,0,0,0,0
286,11.51,-2.067,-8.851,-20.38,-20.1,0.4363,-14.6,-10.37,-16.43,14.89,-34.19,-15.95,-28.28,-28.51,-51.9,-32.46,0,0,0,0,0,0,0,0,0,0,0,0,0,0,0,0
287,-46.1,-45.67,-42.39,-51.87,-52.33,-37.36,-43.18,-34.59,-49.94,-5.186,-68.57,-45.24,-45.87,-46.74,-81.76,-44.71,0,0,0,0,0,0,0,0,0,0,0,0,0,0,0,0
288,-38.74,-43.62,-30.65,-37.94,-35.06,-18.87,-34.46,-20.33,-23.99,-1.709,-51.31,-26.94,-48.36,-37.38,-72.88,-36.32,0,0,0,0,0,0,0,0,0,0,0,0,0,0,0,0
289,-20.38,-54.38,-29.92,-32.51,-30.23,-16.44,-42.8,-17.21,-14.73,-11.87,-38.35,-16.91,-66.24,-43.4,-62.8,-40.44,0,0,0,0,0,0,0,0,0,0,0,0,0,0,0,0
290,-27.77,-76.65,-47.44,-55.48,-48.66,-35.49,-59.6,-38.23,-19.71,-25.11,-29.67,-8.348,-59.26,-45.8,-42.34,-35.84,0,0,0,0,0,0,0,0,0,0,0,0,0,0,0,0
291,-16.47,-61.27,-36.39,-51.65,-33.76,-16.44,-43.22,-36.32,3.91,-12.69,-16.67,10.75,-25.68,-27.93,-23.89,-19.58,0,0,0,0,0,0,0,0,0,0,0,0,0,0,0,0
292,-0.0136,-44.53,-27.38,-36,-20.96,-0.8354,-27.09,-20.97,15.75,2.571,-17.07,15.69,-6.708,-13.91,-18.22,-9.69,0,0,0,0,0,0,0,0,0,0,0,0,0,0,0,0
293,-5.041,-50.26,-38.94,-42.66,-43.1,-20.36,-33.3,-25.95,0.7305,1.146,-21.25,14.06,-3.156,-9.81,-17.08,-8.155,0,0,0,0,0,0,0,0,0,0,0,0,0,0,0,0
294,-8.851,-46.75,-34.27,-44.56,-47.08,-26.8,-35.08,-33.27,-2.332,-0.5889,-17.47,14.7,-3.165,-4.991,-20.37,-7.005,0,0,0,0,0,0,0,0,0,0,0,0,0,0,0,0
295,-9.111,-36.91,-26.42,-37.74,-26.44,-18.12,-33.22,-34.29,10.26,2.124,-4.376,17.6,-0.4428,0.209,-10.22,1.281,0,0,0,0,0,0,0,0,0,0,0,0,0,0,0,0
296,-11.16,-35.39,-28.34,-38.94,-18.94,-17.77,-37.82,-39.22,20.36,-1.119,17.43,33.01,9.263,3.524,12.91,9.808,0,0,0,0,0,0,0,0,0,0,0,0,0,0,0,0
297,-11.46,-38.59,-21.11,-43.34,-19.74,-14.27,-39.64,-45.37,17.91,-10.27,14.41,31.11,8.724,2.252,8.502,5.836,0,0,0,0,0,0,0,0,0,0,0,0,0,0,0,0
298,-18.43,-42.85,-13.11,-46.08,-13.12,-4.056,-33.52,-52.23,10.7,-17.63,-14.6,0.0972,-7.19,-7.076,-12.3,-2.666,0,0,0,0,0,0,0,0,0,0,0,0,0,0,0,0
299,-25.58,-38.55,-6.455,-40.86,-2.898,5.52,-22.52,-48.09,18.47,-17.02,-13.86,-5.994,-15.01,-15.5,-6.419,-2.421,0,0,0,0,0,0,0,0,0,0,0,0,0,0,0,0
300,-20.98,-24.18,2.531,-32.72,4.363,12.85,-16.39,-33.16,30.25,-12.37,6.055,13.18,-10.11,-15.64,4.892,-0.4577,0,0,0,0,0,0,0,0,0,0,0,0,0,0,0,0
301,-14.3,-18.53,-3.725,-37.13,-2.23,9.919,-23.51,-35.63,18.19,-15.1,-5.171,9.069,-10.08,-18.78,-7.355,-5.243,0,0,0,0,0,0,0,0,0,0,0,0,0,0,0,0
302,-11.88,-30.18,-18.82,-45.82,-21.71,1.713,-33.22,-46.35,-2.854,-18.28,-19.82,-1.265,-10.66,-22.41,-18.46,-5.107,0,0,0,0,0,0,0,0,0,0,0,0,0,0,0,0
303,-1.847,-33.75,-20.77,-45.86,-25.38,10.55,-28.21,-40.02,1.72,-8.979,-11.84,6.906,0.8433,-14.02,-18.68,2.626,0,0,0,0,0,0,0,0,0,0,0,0,0,0,0,0
304,12.57,-14.79,-12.29,-41.43,-14.23,26.84,-14.89,-32.89,17.81,-2.553,-11.27,12.52,9.269,-11.84,-24.7,0.2759,0,0,0,0,0,0,0,0,0,0,0,0,0,0,0,0
305,14.39,-0.468,-2.425,-33.4,-13.98,32.03,-5.163,-32.86,20.63,-4.989,-6.324,23.69,7.526,-21.76,-21.57,-7.062,0,0,0,0,0,0,0,0,0,0,0,0,0,0,0,0
306,21.54,4.237,8.435,-17.54,-5.386,47.23,12.22,-20.79,25.95,3.204,20.92,48.96,6.797,-22.96,-5.396,-8.485,0,0,0,0,0,0,0,0,0,0,0,0,0,0,0,0
307,40.26,12.85,15.05,-3.281,8.381,63.24,30.71,-0.4631,28.3,11.77,24.97,49.2,-0.5456,-24.53,-9.649,-18.57,0,0,0,0,0,0,0,0,0,0,0,0,0,0,0,0
308,33.42,9.847,13.68,-2.567,-6.244,47.41,27.03,6.047,14.91,5.689,9.219,32.41,-5.931,-30.56,-19.4,-24.8,0,0,0,0,0,0,0,0,0,0,0,0,0,0,0,0
309,18.52,4.769,8.47,-10.43,-13.85,31.85,16.56,-1.615,18.97,4.646,25.62,39.12,5.821,-24.97,-0.7394,-9.517,0,0,0,0,0,0,0,0,0,0,0,0,0,0,0,0
310,25.72,14.64,-11.57,-25.53,-6.494,31.23,12.18,-5.983,31,10.69,40.37,37.49,4.714,-24.99,8.162,-7.99,0,0,0,0,0,0,0,0,0,0,0,0,0,0,0,0
311,16.81,15,-42.32,-45.12,-30.15,15.05,0.3938,0.0693,14.32,9.768,16.28,10.46,-9.389,-34.73,-12.34,-26,0,0,0,0,0,0,0,0,0,0,0,0,0,0,0,0
312,-2.315,11.89,-40.94,-43.65,-44.53,6.857,-6.566,11.81,4.687,10.09,2.303,5.472,-0.7058,-29.8,-16.09,-25.21,0,0,0,0,0,0,0,0,0,0,0,0,0,0,0,0
313,5.141,24.97,-11.71,-21.77,-19.43,18.92,0.5975,19.79,18.36,14.43,9.233,12.26,9.59,-20.04,-7.325,-17,0,0,0,0,0,0,0,0,0,0,0,0,0,0,0,0
314,5.114,30.75,0.8746,-11.32,-8.002,15.99,2.705,15.85,16.59,17,0.6003,-6.14,3.158,-15.5,-17.68,-20.53,0,0,0,0,0,0,0,0,0,0,0,0,0,0,0,0
315,-14.8,24.7,1.105,-15.1,-10.6,6.722,-4.747,6.977,8.434,20.68,-5.672,-19.26,5.033,-7.349,-23.5,-20.09,0,0,0,0,0,0,0,0,0,0,0,0,0,0,0,0
316,-22.85,18.79,-4.664,-24.17,-9.066,2.552,-15.35,1.06,12.33,20.75,6.558,-9.947,5.658,-7.429,-17.52,-21.37,0,0,0,0,0,0,0,0,0,0,0,0,0,0,0,0
317,-24.37,4.101,-25.72,-39.85,-22.62,-12.24,-26.9,-6.154,11.54,12.33,10.11,-4.004,-8.785,-17.14,-20,-28.29,0,0,0,0,0,0,0,0,0,0,0,0,0,0,0,0
318,-21.37,-11.71,-39.28,-48.47,-28.88,-20.3,-34.33,-11.72,11.61,4.756,8.952,3.277,-13.79,-19.05,-14.29,-21.76,0,0,0,0,0,0,0,0,0,0,0,0,0,0,0,0
319,-4.431,-14.6,-40.82,-41.75,-15.55,-15.53,-37.29,-10.23,18.2,6.51,19.99,22.71,-4.364,-13.67,4.321,-7.14,0,0,0,0,0,0,0,0,0,0,0,0,0,0,0,0
320,7.141,-10.59,-43.79,-33.19,-14.27,-18.36,-36.61,-7.226,18.82,14.27,25.94,38.1,2.527,-5.52,13.68,0.9209,0,0,0,0,0,0,0,0,0,0,0,0,0,0,0,0
321,14.39,-3.783,-30.41,-28.63,-9.764,-10.37,-30.71,-5.711,26.83,20.32,28.64,46.87,4.144,3.728,20.6,3.545,0,0,0,0,0,0,0,0,0,0,0,0,0,0,0,0
322,32.67,5.192,-5.641,-25.99,10.6,13.88,-24.25,-2.41,40.95,23.37,40.91,54.62,1.875,5.831,31.46,3.855,0,0,0,0,0,0,0,0,0,0,0,0,0,0,0,0
323,36.5,10.87,-3.059,-31.06,5.647,13.73,-23.68,2.499,31.79,23.68,40.93,55.15,-3.012,1.345,34.5,8.791,0,0,0,0,0,0,0,0,0,0,0,0,0,0,0,0
324,18.2,8.934,-14.52,-40.6,-15.06,-4.157,-26.93,2.758,14.99,18.61,30.69,53.42,-4.812,-3.818,34.74,18.46,0,0,0,0,0,0,0,0,0,0,0,0,0,0,0,0
325,9.113,1.102,-19.66,-45.06,-13.95,-7.278,-27.38,-1.684,13.43,12.03,30.89,54.36,-2.893,-9.497,38.75,23.3,0,0,0,0,0,0,0,0,0,0,0,0,0,0,0,0
326,4.033,-1.535,-28.69,-46.78,-13.64,-10.32,-24.24,4.098,8.466,10.4,22.72,50.4,-1.016,-12.66,40.38,24,0,0,0,0,0,0,0,0,0,0,0,0,0,0,0,0
327,-7.162,8.764,-31.75,-37.73,-19.64,-8.415,-15.46,22.16,2.912,13.72,9.757,47.28,2.026,-10.3,36.81,26.06,0,0,0,0,0,0,0,0,0,0,0,0,0,0,0,0
328,-2.119,20.9,-9.317,-14.82,-7.186,17.58,-1.566,28.13,9.834,16.37,18.63,51.1,11.94,-5.525,36.64,34.42,0,0,0,0,0,0,0,0,0,0,0,0,0,0,0,0
329,12.36,25.32,12.04,-5.461,7.693,35.35,2.937,15.68,15.37,13.56,28.16,52.09,25.33,0.4282,45.2,45.4,0,0,0,0,0,0,0,0,0,0,0,0,0,0,0,0
330,17.5,30.86,14.93,-7.428,12.97,33.2,-1.624,8.83,18.66,11.99,25.51,48.82,28.13,9.211,42.85,41.26,0,0,0,0,0,0,0,0,0,0,0,0,0,0,0,0
331,15.26,37.63,16.19,4.009,11.71,30.27,0.8799,15.55,21.34,17.87,29.37,48.02,22.3,19.71,28.87,28.13,0,0,0,0,0,0,0,0,0,0,0,0,0,0,0,0
332,2.509,35.48,12.34,11.93,-4.294,16.16,3.629,24.42,12.67,21.32,30.75,46.37,18.76,24.17,31.05,23.86,0,0,0,0,0,0,0,0,0,0,0,0,0,0,0,0
333,-14.37,25.39,-1.502,-0.0721,-21.56,-6.174,-9.368,25.43,-7.605,13.19,17.2,33.44,7.051,14.78,31.14,14.33,0,0,0,0,0,0,0,0,0,0,0,0,0,0,0,0
334,-28.81,8.066,-17.48,-20.66,-29.37,-17.77,-30.53,7.892,-27.92,-0.1568,3.866,17.7,-8.202,5.923,13.7,0.6071,0,0,0,0,0,0,0,0,0,0,0,0,0,0,0,0
335,-37.68,-5.549,-28.34,-32.73,-29.93,-16.8,-35.83,-13.6,-21,-6.867,7.606,23.06,-1.965,15.19,12.56,5.783,0,0,0,0,0,0,0,0,0,0,0,0,0,0,0,0
336,-25.23,-0.1794,-18.04,-22.67,-16.48,-2.528,-20.89,-11.03,9.373,-7.708,22.83,36.26,11.15,25.68,18.64,17.61,0,0,0,0,0,0,0,0,0,0,0,0,0,0,0,0
337,-6.251,10.48,1.588,-8.829,-3.85,14.93,-4.762,5.739,20.9,-9.186,29.01,37.21,17.25,26.7,13.78,26.14,0,0,0,0,0,0,0,0,0,0,0,0,0,0,0,0
338,6.194,25.49,8.512,-3.135,0.8246,26.92,12.89,23.02,22.01,-4.608,27.17,47.71,34.66,34.38,20.84,38.38,0,0,0,0,0,0,0,0,0,0,0,0,0,0,0,0
339,26.43,48.42,16.08,9.716,10.48,35.82,28.83,35.14,31.11,2.682,29.95,60.12,47.08,39.34,28.1,38.92,0,0,0,0,0,0,0,0,0,0,0,0,0,0,0,0
340,35.13,47.72,20.59,10.36,13.14,35.68,20.11,23,28.88,-0.3554,36.66,56.51,43.82,32.37,33.84,37.89,0,0,0,0,0,0,0,0,0,0,0,0,0,0,0,0
341,35.13,39.4,13.35,-2.629,12.11,36.27,9.738,12.07,30.23,0.4528,48.59,75.39,56.35,36.67,64.7,58.73,0,0,0,0,0,0,0,0,0,0,0,0,0,0,0,0
342,56.14,59.28,16.02,6.734,20.93,43.46,22.14,26.7,40.97,11.37,58.07,108.4,72.81,49.42,82.78,69.46,0,0,0,0,0,0,0,0,0,0,0,0,0,0,0,0
343,66.1,66.53,17.45,10.9,13.77,33.93,20.92,17.85,28.25,7.823,51.32,95.36,61.3,44.69,57.2,49.47,0,0,0,0,0,0,0,0,0,0,0,0,0,0,0,0
344,45.09,43.07,-9.916,-20.58,-18.56,5.832,-5.385,-18.23,-0.2206,-11.64,32.41,50.98,34.88,24.66,25.63,23.58,0,0,0,0,0,0,0,0,0,0,0,0,0,0,0,0
345,23.32,27.38,-42.61,-44.76,-43.82,-15.77,-24.19,-26.95,-19.36,-26.01,11.16,25.48,13.48,8.54,12.61,3.7,0,0,0,0,0,0,0,0,0,0,0,0,0,0,0,0
346,16.6,24.84,-42.79,-41.14,-42.03,-11.86,-24.86,-18.16,-20.72,-28.7,4.129,26.04,6.419,6.556,11.96,-3.907,0,0,0,0,0,0,0,0,0,0,0,0,0,0,0,0
347,27.82,29.71,-21.29,-33.35,-30.7,5.806,-15,-16.93,-12.22,-21.48,11.79,34.27,11.48,12.2,4.293,-1.696,0,0,0,0,0,0,0,0,0,0,0,0,0,0,0,0
348,34.76,43.64,-17.52,-27.98,-34.97,3.376,-4.909,-10.01,-25.76,-9.306,3.259,32.53,16.99,18.59,-16.65,-6.426,0,0,0,0,0,0,0,0,0,0,0,0,0,0,0,0
349,21.39,55.83,-30.19,-29.04,-47.07,-12.23,-2.523,-3.113,-49.84,-1.281,-15.46,26.64,21.72,26.64,-25.52,-11.08,0,0,0,0,0,0,0,0,0,0,0,0,0,0,0,0
350,14.3,57.53,-35.62,-41.19,-55.88,-19.42,-5.989,-5.411,-45.88,-0.5178,-11.35,28.81,19.01,26.58,-21.27,-9.952,0,0,0,0,0,0,0,0,0,0,0,0,0,0,0,0
351,15.21,46.1,-37.38,-44.7,-62.48,-26.81,-9.937,-7.78,-28.53,-1.081,10.26,39.78,15.75,21.91,-12.68,-4.002,0,0,0,0,0,0,0,0,0,0,0,0,0,0,0,0
352,18.64,40.21,-33.78,-35.28,-50.7,-23.42,-8.309,-14.73,-10.81,1.969,32.65,61.49,32.74,30.4,12.49,18.54,0,0,0,0,0,0,0,0,0,0,0,0,0,0,0,0
353,38.6,50.48,-24.46,-39.25,-30.73,-10.17,-9.79,-27.08,6.15,4.383,40.06,72.9,40.59,35.91,25.86,30.6,0,0,0,0,0,0,0,0,0,0,0,0,0,0,0,0
354,43.68,41.73,-35.12,-56.05,-40.95,-24.71,-29.42,-30.54,-7.16,1.738,20.16,51.23,14.26,23.65,0.2398,5.008,0,0,0,0,0,0,0,0,0,0,0,0,0,0,0,0
355,16.03,10.59,-60.07,-61.95,-67.16,-48.65,-47.02,-27.6,-34.54,-2.185,-0.3293,25.71,-5.716,14.82,-24.17,-17.97,0,0,0,0,0,0,0,0,0,0,0,0,0,0,0,0
356,6.714,3.625,-56.55,-48.39,-65.62,-35.8,-32.8,-22.34,-30.03,0.1097,1.633,24.42,-2.059,13.65,-24.4,-15.92,0,0,0,0,0,0,0,0,0,0,0,0,0,0,0,0
357,26.75,19.31,-24.12,-23.02,-46.17,-12.97,-8.261,-8.741,-20.61,4.024,5.661,25.5,-3.15,5.198,-25.99,-14.37,0,0,0,0,0,0,0,0,0,0,0,0,0,0,0,0
358,27.01,14.78,-13.24,-11.69,-47.67,-23.13,-12.38,-2.993,-38.44,-6.273,0.3539,13.23,-10.87,-2.695,-29.7,-12.55,0,0,0,0,0,0,0,0,0,0,0,0,0,0,0,0
359,6.358,-4.368,-28.98,-17.48,-58.38,-42.83,-28.83,-12.28,-47.26,-20.32,-2.731,7.098,-7.089,3.229,-20.39,0.1522,0,0,0,0,0,0,0,0,0,0,0,0,0,0,0,0
360,-0.9519,-2.511,-28.65,-15.87,-54.6,-44.84,-29.17,-16.15,-38.12,-19.55,-8.029,7.431,0.5732,10.32,-15,8.794,0,0,0,0,0,0,0,0,0,0,0,0,0,0,0,0
361,-7.255,4.154,-30.19,-21.96,-64.46,-52.05,-33.25,-22.3,-48.82,-22.57,-22.55,-9.383,-8.19,2.727,-28.68,1.383,0,0,0,0,0,0,0,0,0,0,0,0,0,0,0,0
362,-24.73,-12.04,-54.37,-41.03,-86.42,-66.01,-43.19,-34.73,-64.73,-31.7,-30.31,-28.55,-25.11,-6.05,-44.02,-15.09,0,0,0,0,0,0,0,0,0,0,0,0,0,0,0,0
363,-28.02,-23.94,-52.83,-38.41,-78.41,-60.78,-32.18,-27.34,-54.05,-21.93,-26.26,-26.75,-31.17,-2.188,-49.57,-26.67,0,0,0,0,0,0,0,0,0,0,0,0,0,0,0,0
364,-19.11,-18.82,-31.72,-26.77,-57.41,-50.09,-20.16,-16.37,-44.5,-8.836,-26.74,-22.8,-32.88,1.396,-49.53,-28.71,0,0,0,0,0,0,0,0,0,0,0,0,0,0,0,0
365,-18.39,-22.07,-34.45,-29.11,-54.05,-48.79,-29.65,-23.21,-54.86,-11.56,-28.59,-22.27,-33.92,-0.4799,-43.22,-24.78,0,0,0,0,0,0,0,0,0,0,0,0,0,0,0,0
366,-24,-29.17,-32.47,-27.85,-55.46,-46.04,-37.99,-20.96,-59.39,-13.5,-22.59,-12.86,-24.67,2.827,-34.18,-13.7,0,0,0,0,0,0,0,0,0,0,0,0,0,0,0,0
367,-32.28,-27.19,-17.06,-23.26,-57.21,-47.37,-37.06,-8.761,-55.49,-9.594,-21.01,-6.436,-11.82,10.64,-24.21,4.083,0,0,0,0,0,0,0,0,0,0,0,0,0,0,0,0
368,-36.75,-25.64,-24.48,-23.49,-64.78,-55.56,-39.28,-8.335,-59.68,-5.043,-25.02,-4.144,-3.701,18.41,-10.34,22.09,0,0,0,0,0,0,0,0,0,0,0,0,0,0,0,0
369,-30.41,-24.28,-36.24,-19.44,-67.28,-55.38,-40.47,-7.269,-58.37,0.2679,-16.44,6.678,4.53,28.61,1.808,35.88,0,0,0,0,0,0,0,0,0,0,0,0,0,0,0,0
370,-16.22,-15.16,-23.07,-10.37,-51.86,-40.83,-31.57,2.331,-36.31,0.9393,7.832,21.64,12.53,36.66,11.76,41.03,0,0,0,0,0,0,0,0,0,0,0,0,0,0,0,0
371,3.575,-1.806,-10.43,-3.622,-28.49,-18.51,-15.38,6.704,-10.96,0.9185,31.35,33.97,14.24,32.01,20.77,36.46,0,0,0,0,0,0,0,0,0,0,0,0,0,0,0,0
372,20.3,5.976,-11.18,-3.359,-19.08,-1.037,-4.197,6.206,3.752,4.164,41.67,39.12,7.231,18.3,23.43,28.62,0,0,0,0,0,0,0,0,0,0,0,0,0,0,0,0
373,27.04,3.639,-1.504,-1.584,-16.05,3.227,-7.603,8.941,12.59,1.127,40.8,35.99,-3.562,10.93,24.82,23.78,0,0,0,0,0,0,0,0,0,0,0,0,0,0,0,0
374,28.12,-0.6982,7.697,7.191,-7.237,-2.043,-16.49,12.48,8.559,-1.334,34.95,31.46,-6.11,15.3,26.91,24.23,0,0,0,0,0,0,0,0,0,0,0,0,0,0,0,0
375,23.71,3.689,-2.56,14.91,-5.849,-7.13,-9.91,18.98,-6.764,10.36,28.26,24.91,-0.5631,22.29,21.7,23.64,0,0,0,0,0,0,0,0,0,0,0,0,0,0,0,0
376,14.82,14.57,-3.133,23.43,-12.54,-7.501,10.87,28.4,-12.81,20.45,18.19,12.35,-2.45,19.28,11.98,14.16,0,0,0,0,0,0,0,0,0,0,0,0,0,0,0,0
377,5.215,23.28,8.61,29.53,-17.57,-7.859,21.7,23.1,-16.51,14.67,-0.5648,-1.574,-7.238,10.36,5.358,7.42,0,0,0,0,0,0,0,0,0,0,0,0,0,0,0,0
378,2.98,31.77,6.047,25.58,-20.14,-4.476,20.12,11.76,-26.39,8.114,-8.987,-4.336,4.182,12.7,7.855,15,0,0,0,0,0,0,0,0,0,0,0,0,0,0,0,0
379,19.12,41.94,6.064,29.13,-16.02,8.03,20.08,21.16,-17.17,7.548,13.02,9.924,20.44,18.54,17.45,23.61,0,0,0,0,0,0,0,0,0,0,0,0,0,0,0,0
380,40.52,44.68,15.23,40.77,-6.657,17.61,19.25,27.61,3.512,4.976,34.98,18.72,20.88,10.74,15.92,21.06,0,0,0,0,0,0,0,0,0,0,0,0,0,0,0,0
381,44.21,38.72,16.11,38.56,-2.656,18.49,15.51,9.351,-0.1297,4.578,26.9,8.472,15.15,3.951,6.391,13.25,0,0,0,0,0,0,0,0,0,0,0,0,0,0,0,0
382,36.01,31.78,21.66,30.85,-4.008,18.41,13.36,-3.648,-5.567,6.543,23.5,10.54,16.45,11.13,19.64,10.83,0,0,0,0,0,0,0,0,0,0,0,0,0,0,0,0
383,38.45,30.25,30.04,29.79,1.744,19.55,13.83,1.69,13.47,5.783,49.51,29.44,18.13,19.44,44.39,13.26,0,0,0,0,0,0,0,0,0,0,0,0,0,0,0,0
384,43.36,31.94,16.17,23.79,6.289,12.78,15.56,14.25,14.01,8.728,56.36,19.48,9.95,21.8,37.98,7.876,0,0,0,0,0,0,0,0,0,0,0,0,0,0,0,0
385,19.48,21.29,-8.15,10.43,-13.89,-9.696,7.541,22.68,-16.17,10.55,26.45,-11.28,-0.3813,21.07,19.17,3.905,0,0,0,0,0,0,0,0,0,0,0,0,0,0,0,0
386,-5.955,8.303,-15.22,-2.157,-32.35,-22.25,-7.595,9.038,-22.11,5.36,20.72,-9.854,6.59,18.99,25.64,17.38,0,0,0,0,0,0,0,0,0,0,0,0,0,0,0,0
387,10.39,20.28,-9.665,-12.06,-16.82,-5.285,-7.019,-9.321,0.1357,9.303,41.36,4.368,20.55,17.65,23.33,18.53,0,0,0,0,0,0,0,0,0,0,0,0,0,0,0,0
388,26.32,38.17,-11.15,-11.4,-4.651,4.686,4.888,0.0274,4.971,19.68,29.74,-10.26,15.31,15.77,-7.21,-4.566,0,0,0,0,0,0,0,0,0,0,0,0,0,0,0,0
389,17.93,38.06,-16.99,5.003,-15.53,-2.46,10.25,18.79,-4.431,17.88,9.639,-18.66,7.415,15.03,-16.36,-3.567,0,0,0,0,0,0,0,0,0,0,0,0,0,0,0,0
390,31.22,35.54,-15.37,17.86,-19.06,8.458,14.98,22.92,-0.4612,15.19,23.38,2.89,16.65,19.47,-0.6804,19.93,0,0,0,0,0,0,0,0,0,0,0,0,0,0,0,0
391,50.96,33.19,-11.33,15.83,-19.56,19.89,17.37,21.15,1.367,18.03,30.43,9.656,13.1,16.52,-7.899,9.342,0,0,0,0,0,0,0,0,0,0,0,0,0,0,0,0
392,32.28,19.55,-12.85,13.06,-33.49,-0.2179,5.176,15.96,-19.61,9.31,12.65,-8.56,-15.8,-3.942,-33.16,-23.99,0,0,0,0,0,0,0,0,0,0,0,0,0,0,0,0
393,3.696,4.342,-18.89,9.828,-46.68,-22.41,-7.543,5.3,-35.04,-2.675,6.187,-12.01,-33.35,-22.47,-41.67,-31.03,0,0,0,0,0,0,0,0,0,0,0,0,0,0,0,0
394,-0.7977,-1.931,-22.86,-0.9917,-53.48,-25.96,-7.312,-0.9964,-29.73,-4.381,7.03,-1.566,-31.81,-28.88,-34.02,-24.68,0,0,0,0,0,0,0,0,0,0,0,0,0,0,0,0
395,0.5025,-8.09,-24.21,-12.21,-60.97,-34.65,-13.2,-6.2,-37.09,-11.24,-3.765,-8.307,-40.18,-41.28,-30.61,-37.3,0,0,0,0,0,0,0,0,0,0,0,0,0,0,0,0
396,-10.51,-22.11,-31.92,-21.88,-65,-48.67,-32.4,-20.37,-55.02,-24.38,-12.42,-26.53,-59.32,-57.8,-41.19,-58.72,0,0,0,0,0,0,0,0,0,0,0,0,0,0,0,0
397,-22.43,-34.76,-37.15,-26.56,-61.04,-47.74,-42.25,-28.52,-59.91,-27.8,-20.82,-35.85,-72.07,-61.73,-56.71,-67.83,0,0,0,0,0,0,0,0,0,0,0,0,0,0,0,0
398,-26.61,-41.97,-25.39,-18.48,-55.19,-40.73,-37.77,-18.04,-66.05,-23.91,-39.45,-42,-75.11,-58.29,-59.95,-64.19,0,0,0,0,0,0,0,0,0,0,0,0,0,0,0,0
399,-30.71,-50.98,-13.72,-9.852,-56.48,-44.59,-35.82,-9.64,-71.7,-21.81,-45.31,-50.18,-72.3,-55.46,-50.62,-58.77,0,0,0,0,0,0,0,0,0,0,0,0,0,0,0,0
400,-40.34,-59.45,-23.31,-17.37,-66.82,-57.52,-45.2,-20.19,-67.12,-28.25,-30.89,-52.77,-73.24,-55.42,-44.09,-58.02,0,0,0,0,0,0,0,0,0,0,0,0,0,0,0,0
401,-50,-63.02,-41.55,-31.32,-70.61,-63.83,-58.42,-35.73,-64.13,-40.71,-23.98,-49.56,-77.01,-59.72,-42.96,-57.21,0,0,0,0,0,0,0,0,0,0,0,0,0,0,0,0
402,-47.37,-60.93,-42.57,-33.24,-58.5,-54.54,-59.86,-38.89,-56.68,-44.54,-27.13,-40.95,-72.07,-58.99,-35.32,-48.96,0,0,0,0,0,0,0,0,0,0,0,0,0,0,0,0
403,-37.01,-51.78,-30.79,-28.28,-50.07,-47.1,-49.49,-31.32,-48.03,-41.67,-20.69,-27.27,-64.53,-50.87,-18.87,-32.6,0,0,0,0,0,0,0,0,0,0,0,0,0,0,0,0
404,-30.31,-37.05,-24.37,-21.47,-45.41,-42.52,-35.14,-21.3,-43.71,-37.99,-5.224,-16.56,-57.63,-43.44,-3.842,-16.25,0,0,0,0,0,0,0,0,0,0,0,0,0,0,0,0
405,-16.99,-20.68,-16,-3.604,-28.6,-21.12,-15.59,-10.12,-19.7,-23.62,15.24,-3.206,-37.24,-28.2,18.4,2.95,0,0,0,0,0,0,0,0,0,0,0,0,0,0,0,0
406,6.402,-6.392,-1.903,13.78,-11.04,4.312,4.336,-1.039,18.25,-0.0553,55.1,33.38,0.0916,4.736,74.27,47.81,0,0,0,0,0,0,0,0,0,0,0,0,0,0,0,0
407,36.27,14.97,9.205,18.18,6.614,21.86,19.2,1.689,41.72,15.95,101.5,75.68,30.5,28.6,126.5,89.89,0,0,0,0,0,0,0,0,0,0,0,0,0,0,0,0
408,50.29,29.27,3.925,5.762,2.552,12.97,9.058,-7.48,22.52,2.034,85.98,61.18,11.4,3.977,90.08,56.82,0,0,0,0,0,0,0,0,0,0,0,0,0,0,0,0
409,-5.729,-10.24,-42.73,-36.25,-62.27,-54.1,-44.56,-39.01,-54.01,-40.82,0.0303,-9.509,-47.5,-47.86,-4.363,-20.58,0,0,0,0,0,0,0,0,0,0,0,0,0,0,0,0
410,-86.26,-67.16,-94.47,-71.1,-118.3,-114.1,-83.92,-70.41,-110.3,-66.94,-54.6,-53.41,-77.18,-69.3,-46.85,-52.61,0,0,0,0,0,0,0,0,0,0,0,0,0,0,0,0
411,-91.53,-67.64,-88.65,-55.47,-103.9,-100.6,-67.2,-64.18,-89.38,-60.55,-44.28,-53.98,-72.34,-65.29,-40.77,-54.3,0,0,0,0,0,0,0,0,0,0,0,0,0,0,0,0
412,-70.39,-51.21,-63.51,-30.51,-85.72,-78.97,-57.34,-40.72,-72.76,-53.41,-39.78,-61.12,-75.69,-68.72,-46.5,-65.16,0,0,0,0,0,0,0,0,0,0,0,0,0,0,0,0
413,-80.38,-58.22,-61.36,-24.39,-84.85,-80.21,-71.66,-34.38,-88.93,-48.56,-46.06,-65.24,-76.68,-67.58,-51.59,-61.46,0,0,0,0,0,0,0,0,0,0,0,0,0,0,0,0
414,-71.86,-52.51,-51.36,-13.54,-70.38,-66.25,-60.92,-34.1,-75.77,-38.78,-28.67,-47.82,-62.66,-54.71,-34.73,-42.91,0,0,0,0,0,0,0,0,0,0,0,0,0,0,0,0
415,-53.01,-35.14,-29.29,1.163,-62.16,-54.62,-37.11,-26.94,-54.78,-33.04,-16.56,-37.35,-49.91,-48.24,-16.08,-33.15,0,0,0,0,0,0,0,0,0,0,0,0,0,0,0,0
416,-55.77,-24.04,-18.35,9.622,-64.96,-56.82,-26.97,-22.23,-65.1,-29.35,-30.35,-41.7,-42.71,-52.07,-16.76,-32.74,0,0,0,0,0,0,0,0,0,0,0,0,0,0,0,0
417,-54.77,-14.77,-27.68,0.5017,-72.19,-59.57,-21.55,-29.7,-72.06,-30.43,-40.24,-48.7,-41.71,-57.49,-26.66,-35.69,0,0,0,0,0,0,0,0,0,0,0,0,0,0,0,0
418,-48.64,-10.74,-42.44,-20.37,-77.79,-66.03,-14.77,-36.17,-62.53,-34.32,-29.16,-51.38,-40.41,-51.25,-15.87,-27.77,0,0,0,0,0,0,0,0,0,0,0,0,0,0,0,0
419,-42.41,-2.27,-35.2,-18.06,-61.35,-59.24,-7.354,-27.87,-57.48,-28.99,-17.63,-38.98,-32.52,-34.62,10.39,-9.156,0,0,0,0,0,0,0,0,0,0,0,0,0,0,0,0
420,-28.42,6.859,-29.62,-12.29,-50.38,-43.08,-12.03,-31.29,-54.87,-29.2,-21.33,-19.98,-29.28,-29.3,23.08,-2.676,0,0,0,0,0,0,0,0,0,0,0,0,0,0,0,0
421,-18.98,-4.087,-44.79,-31.96,-60.81,-42.34,-29.15,-52.51,-50.56,-41.01,-21.23,-12.41,-28.28,-33.77,23.22,-4.524,0,0,0,0,0,0,0,0,0,0,0,0,0,0,0,0
422,-10.73,-17.91,-46.25,-43.24,-54.54,-34.8,-34.09,-60.21,-41.58,-43.33,-8.636,-11.69,-23.29,-30.88,19.15,-4.677,0,0,0,0,0,0,0,0,0,0,0,0,0,0,0,0
423,4.482,-17.55,-40.49,-44.79,-38.75,-16.09,-32.25,-63.97,-25.27,-39.32,-7.195,-10.43,-22.47,-24.44,12.1,-11.32,0,0,0,0,0,0,0,0,0,0,0,0,0,0,0,0
424,8.827,-14.34,-49.41,-57.83,-40.94,-22.66,-40.88,-72.83,-26.91,-40.66,-17.39,-14.75,-21.92,-19.68,6.617,-16.34,0,0,0,0,0,0,0,0,0,0,0,0,0,0,0,0
425,-6.906,-14.43,-55.66,-59.54,-48.91,-43.98,-48.43,-65.69,-46.74,-39.38,-16.8,-25.47,-18.78,-14.74,-1.273,-16.3,0,0,0,0,0,0,0,0,0,0,0,0,0,0,0,0
426,-26.64,-16.19,-56.28,-46.3,-51.06,-50.88,-51.56,-54.93,-48.77,-34.65,-10.34,-31.37,-19.51,-11.75,-4.965,-22.59,0,0,0,0,0,0,0,0,0,0,0,0,0,0,0,0
427,-36.26,-15.72,-53.09,-39.14,-48.01,-53.57,-58.52,-54.88,-38.94,-33.53,-6.839,-26.25,-18.87,-8.201,5.308,-23.68,0,0,0,0,0,0,0,0,0,0,0,0,0,0,0,0
428,-40.91,-16.11,-44.05,-38.51,-45.47,-58.16,-67.35,-59.06,-32.11,-37,6.401,-14.89,-15.76,-2.493,14.21,-11.62,0,0,0,0,0,0,0,0,0,0,0,0,0,0,0,0
429,-46.3,-24.74,-45.66,-44.74,-52.99,-63.47,-80.79,-72.7,-30.17,-45.82,17.76,-7.491,-18.8,-0.9968,16.94,-3.969,0,0,0,0,0,0,0,0,0,0,0,0,0,0,0,0
430,-53.58,-37.8,-60.76,-60.91,-69.19,-81.83,-101.5,-90.8,-52.8,-58.44,7.492,-11.76,-25.37,-6.976,22.33,-5.729,0,0,0,0,0,0,0,0,0,0,0,0,0,0,0,0
431,-63.41,-52.78,-73.51,-74.4,-80.89,-96.79,-114.9,-102,-70.55,-68.02,0.6586,-16.96,-27.42,-16.95,22.89,-6.984,0,0,0,0,0,0,0,0,0,0,0,0,0,0,0,0
432,-61.28,-65.48,-76.82,-73.22,-83.51,-90.19,-108.1,-103.6,-56.93,-71.11,3.979,-13.4,-27.66,-24.81,18.37,-7.771,0,0,0,0,0,0,0,0,0,0,0,0,0,0,0,0
433,-48.1,-66.46,-75.8,-65.49,-86.13,-84.24,-92.85,-92.71,-57.22,-69.93,-7.317,-8.509,-27.31,-25.96,18.29,-11.02,0,0,0,0,0,0,0,0,0,0,0,0,0,0,0,0
434,-43.49,-58.43,-73.23,-61.9,-83.58,-80.43,-83.96,-84.28,-62.57,-65.81,-9.3,4.527,-16.99,-20.48,23.93,-9.463,0,0,0,0,0,0,0,0,0,0,0,0,0,0,0,0
435,-37.25,-50.03,-67.2,-60.18,-69.44,-66.02,-77.2,-87.36,-41.6,-60.95,10.16,23.42,-6.808,-13.64,35.44,-1.497,0,0,0,0,0,0,0,0,0,0,0,0,0,0,0,0
436,-25.2,-49.09,-60.04,-55.67,-55.3,-55.93,-69.04,-81.16,-31.15,-58.11,11.43,19.98,-14.32,-11.51,43.24,1.252,0,0,0,0,0,0,0,0,0,0,0,0,0,0,0,0
437,-24.73,-50.01,-44.45,-44.43,-39.86,-45.91,-61.73,-62.48,-29.63,-52.27,4.518,5.129,-17.43,-11.47,38.08,1.444,0,0,0,0,0,0,0,0,0,0,0,0,0,0,0,0
438,-21.9,-35.1,-25.68,-32.79,-22.99,-27.67,-49.76,-52.37,-13.38,-42.8,15.72,5.604,-3.355,-8.888,28.36,7.214,0,0,0,0,0,0,0,0,0,0,0,0,0,0,0,0
439,-7.138,-18.28,-27.77,-31.96,-14.62,-20.48,-36.61,-50.83,-7.222,-41.81,15.25,5.099,-1.121,-8.29,16.02,6.222,0,0,0,0,0,0,0,0,0,0,0,0,0,0,0,0
440,-3.36,-20.67,-34.92,-36.24,-13.18,-24.85,-36.9,-46.32,-14.12,-48.87,0.2898,-0.3304,-6.722,-8.368,4.223,1.505,0,0,0,0,0,0,0,0,0,0,0,0,0,0,0,0
441,-7.582,-24.52,-33.13,-45.42,-23.68,-26.27,-44.99,-47.78,-13.12,-48.03,8.476,12.94,4.784,0.3685,10.91,14.54,0,0,0,0,0,0,0,0,0,0,0,0,0,0,0,0
442,3.86,-18.73,-39.38,-58.54,-28.86,-21.71,-45,-55.01,3.276,-38.66,31.58,37.04,14.13,12.15,31.55,32.63,0,0,0,0,0,0,0,0,0,0,0,0,0,0,0,0
443,19.19,-13.92,-33.78,-55.86,-2.788,-17.82,-44.8,-46.92,24.65,-31.91,40.78,49.23,7.255,15.28,46.12,29.81,0,0,0,0,0,0,0,0,0,0,0,0,0,0,0,0
444,16.29,-11.38,-16.75,-49.58,15.31,-26.78,-56.54,-38.83,24.71,-28.59,45.24,50.62,4.255,15.16,51.61,16.24,0,0,0,0,0,0,0,0,0,0,0,0,0,0,0,0
445,9.602,-16.82,-32.7,-64.36,-1.465,-42.31,-74.26,-55.93,10.83,-30.45,49.02,42.35,2.39,14.74,48.3,12.67,0,0,0,0,0,0,0,0,0,0,0,0,0,0,0,0
446,8.057,-34.38,-63.53,-79.28,-18.81,-53.18,-92.13,-70.24,4.996,-41.06,35.97,19.84,-16.41,3.765,36.83,10.7,0,0,0,0,0,0,0,0,0,0,0,0,0,0,0,0
447,-7.218,-50.39,-71.42,-78.37,-29.46,-65.81,-105.2,-65.21,-7.693,-49.86,18.53,-3.559,-36.54,-11.51,20.46,-3.588,0,0,0,0,0,0,0,0,0,0,0,0,0,0,0,0
448,-27.68,-58.26,-70.72,-74.35,-39.95,-75.73,-107.2,-64,-26.26,-49.61,9.96,-18.52,-36.88,-13.03,2.705,-13.05,0,0,0,0,0,0,0,0,0,0,0,0,0,0,0,0
449,-28.54,-55.64,-66.52,-65.74,-32.87,-68.39,-99.91,-62.32,-20.86,-41.9,3.924,-21.61,-29.31,-5.086,-1.179,-3.534,0,0,0,0,0,0,0,0,0,0,0,0,0,0,0,0
450,-10.97,-36.68,-49.07,-50.61,-11.29,-45.92,-82.08,-47.64,-1.033,-27.64,9.149,0.0417,-27.26,-2.822,4.146,2.456,0,0,0,0,0,0,0,0,0,0,0,0,0,0,0,0
451,10.67,-20.4,-36.81,-46.18,0.3163,-29.28,-60.79,-36.9,-3.147,-22,11.89,17.42,-25.63,-7.056,-7.305,-6.479,0,0,0,0,0,0,0,0,0,0,0,0,0,0,0,0
452,18.35,-23.93,-40.39,-51.01,-0.3485,-26.28,-52.64,-34.95,-14.16,-27.91,-7.898,-0.0135,-22.32,-10.22,-20.25,-13.42,0,0,0,0,0,0,0,0,0,0,0,0,0,0,0,0
453,14.8,-24.34,-33.07,-39.33,8.099,-10.6,-45.93,-23.92,-0.6642,-22.39,-13.06,-2.4,-17.88,-7.912,-10.39,-14.96,0,0,0,0,0,0,0,0,0,0,0,0,0,0,0,0
454,26.28,-11.09,-7.048,-15.15,25.31,18.69,-29.35,-4.352,16.08,-14.91,7.748,28.36,-13.28,-4.781,6.769,-11.82,0,0,0,0,0,0,0,0,0,0,0,0,0,0,0,0
455,47.89,-6.587,6.744,-4.767,31.06,27.74,-24.51,2.01,20.05,-26.16,18.2,43.34,-12.89,-5.364,23.77,6.928,0,0,0,0,0,0,0,0,0,0,0,0,0,0,0,0
456,55.25,-12.28,1.377,-5.861,26.84,19.1,-35.33,-9.171,29.48,-35.22,24.92,50.07,-11.32,-3.546,36.96,28.49,0,0,0,0,0,0,0,0,0,0,0,0,0,0,0,0
457,50.01,-15.3,-6.768,-10.04,21.22,10.38,-40.59,-20.28,29.67,-31.65,34.99,59.56,-9.257,-1.937,27.37,23.52,0,0,0,0,0,0,0,0,0,0,0,0,0,0,0,0
458,39.45,-21.53,-16.11,-18.82,15.56,-1.732,-38.52,-25.29,18.73,-33.63,25.13,42.61,-20.58,-12.42,8.943,-0.8751,0,0,0,0,0,0,0,0,0,0,0,0,0,0,0,0
459,24.48,-34.8,-21.6,-20.8,12.43,-12.63,-40.3,-30.5,21.98,-42.03,11.6,25.72,-33.82,-24.87,7.902,-10.82,0,0,0,0,0,0,0,0,0,0,0,0,0,0,0,0
460,17.8,-41.36,-18.3,-12.1,11.4,-14.44,-44.12,-32.9,21.51,-46.13,19.26,34.32,-29.24,-22.55,15.44,-2.253,0,0,0,0,0,0,0,0,0,0,0,0,0,0,0,0
461,22.25,-36.33,-18.14,-9.141,10.36,-14.25,-45.89,-32.36,5.489,-44.6,23.5,31.98,-23.55,-15.57,16.2,0.8218,0,0,0,0,0,0,0,0,0,0,0,0,0,0,0,0
462,11.6,-40.02,-27.36,-22.09,-1.318,-25.99,-54.59,-41.16,-5.716,-45.43,8.122,16.47,-30.79,-18.88,11.16,-3.965,0,0,0,0,0,0,0,0,0,0,0,0,0,0,0,0
463,-13.43,-56.37,-34.44,-35.65,-18.08,-41.92,-65.2,-51.69,-9.821,-52.17,3.82,19.91,-33.5,-27.11,9.962,2.256,0,0,0,0,0,0,0,0,0,0,0,0,0,0,0,0
464,-15.52,-59.5,-30.8,-31.46,-14.95,-35.21,-56.94,-41.37,-9.456,-53.79,15.83,32.07,-29.27,-30.03,13.18,15.09,0,0,0,0,0,0,0,0,0,0,0,0,0,0,0,0
465,-1.318,-49.28,-24.08,-20.15,-4.178,-13.84,-37.12,-20.69,-4.753,-46.23,11.17,29.27,-33.54,-27.43,7.743,14.1,0,0,0,0,0,0,0,0,0,0,0,0,0,0,0,0
466,0.315,-44.13,-16.89,-12.1,0.1507,-3.825,-25.06,-13.19,3.535,-38.01,0.5563,22.5,-40.42,-27.1,-1.484,4.552,0,0,0,0,0,0,0,0,0,0,0,0,0,0,0,0
467,-2.311,-41.49,-10.19,-7.723,7.953,-4.614,-22.6,-17.64,11.49,-35.6,4.785,24.99,-38.9,-34.14,-2.804,0.9417,0,0,0,0,0,0,0,0,0,0,0,0,0,0,0,0
468,-3.881,-35.73,-16.1,-13.67,2.825,-9.665,-24.92,-24.3,1.786,-38.37,-0.6972,25.09,-32.4,-38.75,-4.589,0.5825,0,0,0,0,0,0,0,0,0,0,0,0,0,0,0,0
469,-0.8699,-21.72,-18.34,-8.418,-8.637,-6.526,-16.55,-20.5,-9.739,-33.15,-8.782,24.8,-20.59,-30.68,-1.69,3.829,0,0,0,0,0,0,0,0,0,0,0,0,0,0,0,0
470,16.6,-2.799,2.282,18.15,4.005,11.22,1.538,-7.891,3.547,-20.07,6.13,35.89,-8.404,-21.91,12.09,8.307,0,0,0,0,0,0,0,0,0,0,0,0,0,0,0,0
471,26.83,1.72,19.6,30.49,19.84,22.67,3.905,-8.225,9.994,-19.89,10.49,40.25,-11.45,-24.58,12.71,3.115,0,0,0,0,0,0,0,0,0,0,0,0,0,0,0,0
472,17.84,-5.869,22.62,29.23,22.09,21.98,-4.394,-15.62,-4.946,-26.29,-9.581,32.09,-22.61,-26.43,1.53,-0.8316,0,0,0,0,0,0,0,0,0,0,0,0,0,0,0,0
473,8.556,-11.8,26.43,34.45,27.11,22.75,-6.478,-13.31,-3.856,-22.23,-11.58,31.9,-24.08,-21.2,5.198,2.035,0,0,0,0,0,0,0,0,0,0,0,0,0,0,0,0
474,4.912,-13.53,29.72,35.44,32.39,26.62,-6.674,-8.123,8.478,-19.21,1.871,27.94,-23.92,-22.25,11.86,-5.508,0,0,0,0,0,0,0,0,0,0,0,0,0,0,0,0
475,3.693,-6.324,32.16,32.36,31.43,27.33,-3.799,-4.381,3.889,-20.58,-3.062,8.366,-28.25,-26.07,4.584,-11.96,0,0,0,0,0,0,0,0,0,0,0,0,0,0,0,0
476,3.951,1.154,31.55,29.26,31.37,23.7,3.882,-6.76,0.9403,-14.54,-6.038,4.255,-22.78,-17.8,-1.785,-1.703,0,0,0,0,0,0,0,0,0,0,0,0,0,0,0,0
477,13.19,3.386,33.42,34.23,42.77,35.57,17.2,-11.79,16.13,-4.805,10.55,25.24,-5.161,-3.505,1.101,9.566,0,0,0,0,0,0,0,0,0,0,0,0,0,0,0,0
478,38.37,17.1,53.83,59.57,61.61,65.14,36.16,-1.373,28.9,6.624,15.55,43.28,16.8,10.81,9.27,23.09,0,0,0,0,0,0,0,0,0,0,0,0,0,0,0,0
479,54.24,37.08,64.53,73.69,62.49,70.2,40.83,13.32,31.46,21.51,10.86,50.52,34.41,23.5,18.91,39.57,0,0,0,0,0,0,0,0,0,0,0,0,0,0,0,0
480,43.36,42.57,43.13,60.25,44.66,46.98,27.97,17.64,35.93,22.67,19.32,52.01,29.66,16.07,21.39,34.86,0,0,0,0,0,0,0,0,0,0,0,0,0,0,0,0
481,29.16,35.58,31.09,54.68,36.98,38.06,23.2,21.64,39.3,6.722,20.14,46.36,10.56,-6.273,17.88,23.1,0,0,0,0,0,0,0,0,0,0,0,0,0,0,0,0
482,29.56,31.27,45.35,61.51,46.33,48.56,33.31,22.26,37.69,0.8125,13.74,48.17,9.094,-10.97,16.82,30.72,0,0,0,0,0,0,0,0,0,0,0,0,0,0,0,0
483,40.11,37.42,53.25,58.76,54.61,55.58,42.97,18.29,41.53,8.893,24.71,65.11,19.48,-3.296,17.28,35.15,0,0,0,0,0,0,0,0,0,0,0,0,0,0,0,0
484,50.21,43.13,46.86,47.98,53.04,52.66,38.84,19.64,49.12,10.99,33.51,72.97,18.68,-4.141,15.5,23,0,0,0,0,0,0,0,0,0,0,0,0,0,0,0,0
485,52.04,37.67,38.65,38.26,50.14,46.04,23.58,22.28,46.87,7.497,25.98,58.91,11.02,-8.484,3.716,12.21,0,0,0,0,0,0,0,0,0,0,0,0,0,0,0,0
486,48.15,28.66,30.7,34.18,51.32,46.01,16.95,27.88,41.8,6.283,16.87,43.82,5.906,-14.51,-15.21,4.943,0,0,0,0,0,0,0,0,0,0,0,0,0,0,0,0
487,50.17,29.04,36.51,40.23,60.15,61.53,29.53,41.44,51.74,10.84,11.24,49.42,8.426,-18.96,-14.07,0.5739,0,0,0,0,0,0,0,0,0,0,0,0,0,0,0,0
488,66.41,44.65,63.17,54.48,78.88,85.53,47.25,52.68,65.53,23.16,18.91,69.34,19.16,-12.4,8.173,5.67,0,0,0,0,0,0,0,0,0,0,0,0,0,0,0,0
489,80.07,59.14,74.38,62,86.61,94.29,52.05,55.97,62.17,31.65,34.66,78.09,29.25,-2.864,18.93,15.74,0,0,0,0,0,0,0,0,0,0,0,0,0,0,0,0
490,72,57.02,56.56,56.24,75.65,83.18,46.32,54.04,51.88,31.87,28.68,67.89,34.31,3.313,15.86,25.43,0,0,0,0,0,0,0,0,0,0,0,0,0,0,0,0
491,56.58,53.42,47.63,48.8,69.63,71.89,39.68,48,51,32.65,9.816,53.53,34.73,6.218,16.04,28.9,0,0,0,0,0,0,0,0,0,0,0,0,0,0,0,0
492,45.28,52.31,47.78,41.78,69.35,64.96,27.85,41.38,52.96,32.71,6.61,41.48,34.22,1.485,12.64,20.3,0,0,0,0,0,0,0,0,0,0,0,0,0,0,0,0
493,29.41,42.94,35.03,36.13,60.83,55.02,11.23,37.04,42.5,28.92,0.9207,24.43,29.13,-7.348,0.0062,7.433,0,0,0,0,0,0,0,0,0,0,0,0,0,0,0,0
494,10.31,32.86,27.1,35.18,45.06,41.15,-0.4028,31.17,21.94,18.38,-22.79,4.987,6.821,-18.33,-8.6,-1.198,0,0,0,0,0,0,0,0,0,0,0,0,0,0,0,0
495,-5.641,24.89,28.44,26.8,28.76,25.47,-6.346,20.21,14.96,0.6893,-31.38,-2.58,-14.07,-28.39,-11.3,-5.007,0,0,0,0,0,0,0,0,0,0,0,0,0,0,0,0
496,-16.08,15.65,22.15,17.36,22.27,16.27,-6.986,11.94,20.62,-10.48,-19.92,-4.79,-13.8,-27.94,-23.86,-6.527,0,0,0,0,0,0,0,0,0,0,0,0,0,0,0,0
497,-20.77,9.39,14.44,23.59,21.33,17.76,-1.88,16.39,18.05,-10.3,-23.42,-16.65,-13.96,-24.24,-42.82,-10.49,0,0,0,0,0,0,0,0,0,0,0,0,0,0,0,0
498,-21.74,7.083,16.43,32.5,18.48,23.09,2.178,29.04,17.52,-6.256,-33.78,-23.95,-19.76,-25.44,-48.96,-17.72,0,0,0,0,0,0,0,0,0,0,0,0,0,0,0,0
499,-20.47,7.958,24.49,33.57,25.89,26.58,-0.6082,35.21,22.79,-1.807,-32.19,-21.22,-24.48,-29.55,-49.76,-33.31,0,0,0,0,0,0,0,0,0,0,0,0,0,0,0,0
500,-20.04,3.944,28,29.76,39.93,27.22,-8.887,29.99,21.18,-4.231,-34.68,-21.28,-41.68,-43,-56.99,-55.75,0,0,0,0,0,0,0,0,0,0,0,0,0,0,0,0
501,-17.5,-9.351,30.26,24.4,46.95,27.7,-15.35,26.31,24.16,-11.72,-41.39,-13.89,-53.8,-56.5,-58.88,-58.26,0,0,0,0,0,0,0,0,0,0,0,0,0,0,0,0
502,-12.82,-17.95,41.36,28.21,49.11,28.36,-14.99,29.03,28.15,-11.04,-45.25,-3.585,-41.58,-52.68,-57.8,-41.08,0,0,0,0,0,0,0,0,0,0,0,0,0,0,0,0
503,-14.65,-19.36,44.87,35.28,44.14,26.65,-11.27,25.61,20.75,-9.649,-48.28,-11.17,-34.06,-49.23,-64.01,-39.7,0,0,0,0,0,0,0,0,0,0,0,0,0,0,0,0
504,-16.16,-24.66,33.42,31.97,35.67,24.67,-12.96,16.58,18.3,-22.19,-36.25,-16.23,-40.54,-58.9,-60.65,-47.38,0,0,0,0,0,0,0,0,0,0,0,0,0,0,0,0
505,-12.49,-32.16,29.4,29.19,36.11,25.23,-22.64,10.23,22.95,-34.87,-14.45,-1.448,-37.04,-58.96,-39.25,-37.86,0,0,0,0,0,0,0,0,0,0,0,0,0,0,0,0
506,-10.16,-35.5,34.89,34.51,40.42,28.48,-25.68,9.214,25.32,-32.3,-9.772,10.5,-29.24,-49.25,-22.16,-27.44,0,0,0,0,0,0,0,0,0,0,0,0,0,0,0,0
507,-5.436,-35.73,38.93,41.24,38.4,28.57,-13.33,20.54,26.46,-28.82,-18.16,9.576,-31.09,-49.75,-15.75,-27.15,0,0,0,0,0,0,0,0,0,0,0,0,0,0,0,0
508,-3.433,-30.67,40.43,48.85,29.55,23.23,2.643,35.46,19.58,-29.75,-18.16,7.616,-25.85,-46.98,-4.818,-22.8,0,0,0,0,0,0,0,0,0,0,0,0,0,0,0,0
509,-12.1,-17.5,30.6,49.98,16.22,15.31,10.34,36.45,6.924,-23.76,-14.13,-1.494,-13.48,-36.83,-3.012,-20.83,0,0,0,0,0,0,0,0,0,0,0,0,0,0,0,0
510,-28.41,-16.89,13.33,35.02,5.835,-3.331,2.729,30.32,-0.1819,-24.33,-26.1,-30.64,-18.9,-44.09,-26.58,-29.91,0,0,0,0,0,0,0,0,0,0,0,0,0,0,0,0
511,-45.46,-37.02,16.25,24.86,12.65,-14.37,-4.932,27.12,-0.1866,-34.9,-46.82,-60.01,-34.15,-57.86,-53.41,-43.73,0,0,0,0,0,0,0,0,0,0,0,0,0,0,0,0
512,-43.87,-42.85,40.3,41.16,32.32,11.04,10.26,25.13,0.6786,-35.92,-61.77,-74.74,-45.42,-62.76,-75.98,-67.47,0,0,0,0,0,0,0,0,0,0,0,0,0,0,0,0
513,-33.47,-33.39,53.13,59.21,38.26,35.61,25.52,24.29,-6.08,-37.32,-77.06,-88.4,-57.92,-71.11,-90.41,-87.72,0,0,0,0,0,0,0,0,0,0,0,0,0,0,0,0
514,-37.85,-33.84,50.26,55.81,32.82,34.67,23.53,25.99,-5.543,-42.05,-73.01,-80.46,-53.75,-66.79,-64,-74.12,0,0,0,0,0,0,0,0,0,0,0,0,0,0,0,0
515,-28.3,-26.2,48.51,47.15,35.75,42.26,22.99,28.42,15.76,-35.02,-39.07,-41.26,-34.28,-46.85,-21.44,-50.12,0,0,0,0,0,0,0,0,0,0,0,0,0,0,0,0
516,-2.397,-12.23,39.27,40.98,35.48,47.89,17.51,25.22,30.61,-34.27,-17.73,-19.94,-26.81,-43.15,-9.922,-46.59,0,0,0,0,0,0,0,0,0,0,0,0,0,0,0,0
517,7.922,-7.731,30.93,36.38,31.11,37.33,11.4,24.28,28.26,-38.46,-15.72,-16.72,-13.68,-42.92,-3.749,-41.53,0,0,0,0,0,0,0,0,0,0,0,0,0,0,0,0
518,21.7,11.64,45.78,43.48,40.62,46.05,26.73,38.87,29,-24.4,-9.085,-0.0685,7.387,-36.56,3.772,-37.39,0,0,0,0,0,0,0,0,0,0,0,0,0,0,0,0
519,38.07,30.31,52.67,45.59,49.43,64.35,33.49,45.89,28.75,-18.6,-7.787,6.883,-2.671,-53.87,-11.94,-59.47,0,0,0,0,0,0,0,0,0,0,0,0,0,0,0,0
520,31.07,15.76,34.56,25.08,42.63,56.66,14.18,30.52,18.57,-35.31,-11.6,-2.603,-30.08,-77.41,-23.59,-82.02,0,0,0,0,0,0,0,0,0,0,0,0,0,0,0,0
521,22.43,-1.271,29.53,9.666,35.16,37.76,3.355,22.82,13.09,-43.06,-12.75,-11.81,-39.69,-75.78,-19.86,-79.85,0,0,0,0,0,0,0,0,0,0,0,0,0,0,0,0
522,12.59,-6.258,33.34,11.96,30.89,24.89,1.778,26.94,12.94,-40.59,-18.23,-30.98,-38.97,-66.3,-24.29,-69.49,0,0,0,0,0,0,0,0,0,0,0,0,0,0,0,0
523,-16.21,-19.1,19.76,6.56,18.43,9.382,-11.96,21.27,-2.099,-44.74,-23.37,-53.86,-40.01,-62.19,-31.99,-65.63,0,0,0,0,0,0,0,0,0,0,0,0,0,0,0,0
524,-36.9,-28.09,16.7,-1.812,8.788,-6.229,-24.04,15.95,-19.07,-49.32,-29.87,-67.41,-42.41,-60.39,-40.35,-69.18,0,0,0,0,0,0,0,0,0,0,0,0,0,0,0,0
525,-43.64,-24.32,32.06,2.993,11.8,-16.19,-26.44,17.98,-15.33,-51.56,-46.25,-85.95,-49,-66.8,-58.14,-79.2,0,0,0,0,0,0,0,0,0,0,0,0,0,0,0,0
526,-64.99,-30.58,22.3,1.369,0.6974,-32.94,-39.84,11.28,-23.51,-58.77,-67.34,-112.4,-67.39,-83.46,-73.92,-96.31,0,0,0,0,0,0,0,0,0,0,0,0,0,0,0,0
527,-94.26,-54.65,-5.218,-7.631,-22.88,-52.55,-61.78,-0.7117,-53.24,-72.06,-82.12,-129.4,-94.5,-104.7,-76.48,-114.2,0,0,0,0,0,0,0,0,0,0,0,0,0,0,0,0
528,-106.8,-75.55,-5.156,-4.276,-22.94,-52.29,-66.96,-4.908,-56.45,-85.02,-81.99,-131.6,-113.2,-123.5,-75.34,-122.3,0,0,0,0,0,0,0,0,0,0,0,0,0,0,0,0
529,-104.4,-85.48,4.386,-1.37,-18.54,-37.36,-59.42,-7.872,-39.7,-90.93,-79.73,-127.4,-121.3,-135,-80.45,-126.2,0,0,0,0,0,0,0,0,0,0,0,0,0,0,0,0
530,-90.85,-92.94,1.821,0.3937,-25.72,-19.87,-54.4,-12.36,-33.82,-92.55,-81.03,-116.8,-121.6,-138,-77.17,-128.3,0,0,0,0,0,0,0,0,0,0,0,0,0,0,0,0
531,-63.13,-88.76,14.07,13.97,-13.44,-2.604,-51.21,-10.92,-22.89,-92.93,-62,-96.47,-105.1,-130.5,-56.92,-118.1,0,0,0,0,0,0,0,0,0,0,0,0,0,0,0,0
532,-41.68,-69.3,29.16,17.32,2.971,1.778,-50.95,-5.771,-3.877,-81.46,-26.44,-67.66,-70.54,-104.3,-26.09,-90.56,0,0,0,0,0,0,0,0,0,0,0,0,0,0,0,0
533,-27.72,-40.44,36.36,19.05,11.76,13.14,-36.73,13.2,24.87,-49.44,12.77,-17.17,-17.55,-52.28,33.4,-37.61,0,0,0,0,0,0,0,0,0,0,0,0,0,0,0,0
534,13.94,9.734,66.18,48,42.57,49.36,2.427,51.54,63.03,-12.73,53.72,40.13,28.58,-5.444,93.5,6.224,0,0,0,0,0,0,0,0,0,0,0,0,0,0,0,0
535,48.93,47.55,74.58,57.08,51.83,51.68,13.18,60.17,51.63,-4.503,41.82,35.93,11.18,-14.31,64.57,-26.82,0,0,0,0,0,0,0,0,0,0,0,0,0,0,0,0
536,5.984,10.99,16.51,9.219,-8.225,-9.363,-36.67,13,-21.72,-33.32,-43.6,-36.03,-51.5,-59.88,-33.5,-101,0,0,0,0,0,0,0,0,0,0,0,0,0,0,0,0
537,-71.12,-56.45,-36.17,-41.7,-70.5,-64.47,-89.32,-33.52,-73.17,-64.07,-108.5,-93.92,-80.01,-79.79,-92.93,-121.4,0,0,0,0,0,0,0,0,0,0,0,0,0,0,0,0
538,-97.36,-79.03,-40.05,-56.7,-74.5,-70.85,-106.8,-48.32,-71.31,-73.03,-102.3,-107.5,-74.5,-74.3,-103.4,-100.8,0,0,0,0,0,0,0,0,0,0,0,0,0,0,0,0
539,-92.48,-87.09,-33.58,-54.08,-53.25,-64.75,-116.7,-56.26,-55.22,-79.15,-79.74,-118.8,-80.74,-77.08,-107,-99.12,0,0,0,0,0,0,0,0,0,0,0,0,0,0,0,0
540,-104.6,-113.2,-29.11,-44.53,-43.08,-74.47,-126.5,-58.6,-41.45,-93.63,-71.14,-140.8,-93.01,-85.83,-99.17,-108.2,0,0,0,0,0,0,0,0,0,0,0,0,0,0,0,0
541,-118.9,-125.4,-27.76,-33.55,-43.13,-88.21,-124.9,-54.04,-41.77,-105.9,-69.97,-152.9,-95.03,-89.94,-81.94,-99.87,0,0,0,0,0,0,0,0,0,0,0,0,0,0,0,0
542,-121.5,-125.5,-39.54,-39.01,-52.99,-98.84,-130.4,-64.19,-59.98,-112.9,-77.92,-152.2,-87.56,-88.82,-69.72,-80.96,0,0,0,0,0,0,0,0,0,0,0,0,0,0,0,0
543,-128.8,-131.2,-50.88,-56.93,-69.12,-108.6,-147.5,-81.08,-70.37,-116,-87.35,-144.4,-69.26,-80.37,-56.52,-71,0,0,0,0,0,0,0,0,0,0,0,0,0,0,0,0
544,-138.6,-123.1,-53.3,-69.85,-77.16,-107.7,-153,-82.56,-85.34,-115.7,-98.74,-132.4,-52.09,-71.2,-46.34,-73.34,0,0,0,0,0,0,0,0,0,0,0,0,0,0,0,0
545,-140.9,-102.7,-56.29,-82.28,-78.96,-97.16,-150.2,-78.27,-123.2,-107.4,-115.7,-120.5,-44.92,-66.61,-45.36,-75.36,0,0,0,0,0,0,0,0,0,0,0,0,0,0,0,0
546,-136.3,-92.93,-60,-93.99,-82.42,-91,-148.9,-76.7,-133.6,-88.98,-114.2,-102.9,-40.52,-64.57,-39.94,-71.54,0,0,0,0,0,0,0,0,0,0,0,0,0,0,0,0
547,-117.6,-89.15,-54.47,-87.34,-74.1,-77.98,-133.2,-68.37,-94.29,-74.67,-86.42,-76.02,-42.25,-66.33,-30.86,-71.3,0,0,0,0,0,0,0,0,0,0,0,0,0,0,0,0
548,-81.85,-76.48,-35.3,-62.89,-44.41,-42.37,-100.1,-54.27,-50.3,-61.88,-52.49,-54.99,-44.88,-61.92,-29.37,-76.06,0,0,0,0,0,0,0,0,0,0,0,0,0,0,0,0
549,-42.53,-56.51,-13.74,-37.64,-14.25,-4.355,-63.25,-34.99,-19.48,-36.72,-26.69,-43.52,-33.25,-43.45,-26.92,-70.41,0,0,0,0,0,0,0,0,0,0,0,0,0,0,0,0
550,-12.92,-37.31,0.0766,-19.17,-0.9474,14.67,-26.54,-3.392,3.545,-14.03,-18.15,-28.49,-14.72,-25.93,-17,-54.01,0,0,0,0,0,0,0,0,0,0,0,0,0,0,0,0
551,5.801,-15.13,13.28,-2.869,9.542,26.03,2.814,27.91,13.71,-1.938,-17.61,-13.38,4.295,-17.33,-10.28,-46.64,0,0,0,0,0,0,0,0,0,0,0,0,0,0,0,0
552,15.2,10.59,24.11,8.587,19.97,33.71,10.46,37.75,12.01,5.034,-15.67,-14.17,20.8,-14.8,-14.32,-46.19,0,0,0,0,0,0,0,0,0,0,0,0,0,0,0,0
553,11.47,22.98,21.44,5.387,16.51,26.65,2.001,30.39,7.296,0.2368,-22.9,-25.48,25.62,-17.67,-19.1,-37.04,0,0,0,0,0,0,0,0,0,0,0,0,0,0,0,0
554,3.709,23.19,14.36,0.9113,12.55,15.14,-1.52,25.4,7.439,-8.287,-28.05,-29.48,33.4,-18.11,-10.24,-26.24,0,0,0,0,0,0,0,0,0,0,0,0,0,0,0,0
555,2.631,24.18,10.94,5.625,11.84,5.548,-0.7892,26.47,5.9,-13.31,-21.93,-29.43,49.67,-17.32,4.026,-20.55,0,0,0,0,0,0,0,0,0,0,0,0,0,0,0,0
556,-1.136,22.39,4.851,3.034,0.7509,-5.923,-5.161,26.26,-1.655,-20.22,-20.53,-28.1,54.5,-19.79,11.99,-10.49,0,0,0,0,0,0,0,0,0,0,0,0,0,0,0,0
557,-3.249,22.35,-0.2502,-4.194,-2.419,-6.641,-5.079,25.24,-7.712,-21.71,-21,-17.91,52.53,-16.19,19.56,1.173,0,0,0,0,0,0,0,0,0,0,0,0,0,0,0,0
558,2.899,23.07,-3.593,-7.395,4.239,-1.381,-2.883,20.72,-14.93,-24.05,-21.55,-17.96,51.08,-10.42,19.22,-1.318,0,0,0,0,0,0,0,0,0,0,0,0,0,0,0,0
559,-1.591,8.903,-12.81,-17.08,-2.615,-4.351,-13.12,9.292,-16.74,-35.5,-30.17,-41.87,39.49,-12.59,2.244,-18.69,0,0,0,0,0,0,0,0,0,0,0,0,0,0,0,0
560,-18.43,-13.98,-24.72,-29.55,-13.93,-7.527,-27.87,0.2319,-13.67,-43.44,-38.58,-66.31,24.99,-17.36,-9.57,-29.96,0,0,0,0,0,0,0,0,0,0,0,0,0,0,0,0
561,-33.19,-32.24,-30.92,-34.96,-16.86,-9.483,-31.51,-3.242,-21.44,-48.83,-39.81,-71.89,25.35,-18.34,-1.498,-18.61,0,0,0,0,0,0,0,0,0,0,0,0,0,0,0,0
562,-36.82,-35.04,-18.74,-24.03,-6.381,-5.468,-19.25,1.16,-17.25,-49.56,-28.3,-54.79,42.63,-12.6,14.31,3.454,0,0,0,0,0,0,0,0,0,0,0,0,0,0,0,0
563,-24.23,-20.15,7.627,2.334,13.79,9.766,0.4159,18.02,-2.182,-40.4,-14.79,-29.85,60.98,-4.932,30.51,18.64,0,0,0,0,0,0,0,0,0,0,0,0,0,0,0,0
564,-11.72,-10.24,22.53,16.86,17.9,19.9,15.88,31.85,-11.42,-37.58,-15.86,-16.57,72.12,1.205,49.1,27.1,0,0,0,0,0,0,0,0,0,0,0,0,0,0,0,0
565,-5.131,-4.018,27.58,20.51,11.68,23.92,28.57,34.55,-20.2,-36.54,-10.36,-5.892,84.47,11.52,60.83,25.09,0,0,0,0,0,0,0,0,0,0,0,0,0,0,0,0
566,3.747,10.66,28.07,28.25,11.22,22.16,33.58,33.04,-19.07,-25.1,-0.0012,-0.09,93.34,19.25,56.97,14.71,0,0,0,0,0,0,0,0,0,0,0,0,0,0,0,0
567,2.936,15.25,16.07,27.02,5.512,11.5,28.33,26.65,-28.83,-15.12,-9.046,-10.72,96.34,22.11,50.96,19.92,0,0,0,0,0,0,0,0,0,0,0,0,0,0,0,0
568,-2.711,10.03,13.39,26.91,6.143,12.77,24.87,25.15,-22.93,-9.632,-11.26,-15.69,101.8,27.84,50.95,35.01,0,0,0,0,0,0,0,0,0,0,0,0,0,0,0,0
569,-5.324,1.417,21.59,33.51,14.35,15.73,16.61,28.66,-11.26,-10.57,3.045,-5.538,103.5,27.14,50.42,35.51,0,0,0,0,0,0,0,0,0,0,0,0,0,0,0,0
570,-10.44,-10.28,18.78,31.3,9.045,5.129,9.339,24.68,-16.86,-18.85,7.085,6.271,104.3,20.06,55.04,35.22,0,0,0,0,0,0,0,0,0,0,0,0,0,0,0,0
571,0.5893,0.2366,20.46,39.08,5.451,7.845,27.23,26.04,-6.957,-18.57,6.778,11.8,106.1,15.81,61.26,39.02,0,0,0,0,0,0,0,0,0,0,0,0,0,0,0,0
572,15.17,18.72,26.65,52.41,11.63,14.26,45.42,28.63,3.112,-11.62,11.78,4.94,98.89,12.01,60.05,34.43,0,0,0,0,0,0,0,0,0,0,0,0,0,0,0,0
573,6.431,13.98,24.51,46.41,12.29,4.95,40.58,15.83,-13.03,-11.15,12.54,-1.637,98.88,14.28,61.99,37.81,0,0,0,0,0,0,0,0,0,0,0,0,0,0,0,0
574,4.485,12.89,26.82,44.37,9.256,3.989,40.46,7.188,-20.36,-13.95,4.538,-1.848,107.3,16.17,60.95,43.42,0,0,0,0,0,0,0,0,0,0,0,0,0,0,0,0
575,12.8,25.25,22.22,47.37,2.76,7.589,49.27,6.63,-18.25,-13.98,-5.114,-6.514,103,5.167,50.2,26.7,0,0,0,0,0,0,0,0,0,0,0,0,0,0,0,0
576,2.676,28.94,7.32,29.57,-11.14,-3.693,44.43,1.922,-31.48,-11.25,-11.36,-6.566,93.52,-4.114,44.62,2.924,0,0,0,0,0,0,0,0,0,0,0,0,0,0,0,0
577,-13.48,24.56,0.1003,9.694,-29.92,-17.6,32.6,6.091,-49.15,-10.89,-29.01,-9.09,82.97,-6.674,34.98,-13.22,0,0,0,0,0,0,0,0,0,0,0,0,0,0,0,0
578,-25.58,16.78,-14.46,3.535,-46.32,-24.57,27.6,15.51,-61.58,-8.972,-50.32,-22.4,74.64,-6.458,19.67,-20.15,0,0,0,0,0,0,0,0,0,0,0,0,0,0,0,0
579,-35.09,14.54,-35.14,-5.761,-55.66,-30.06,19.02,12.71,-68.93,-1.388,-48.68,-17.89,81.07,-0.3461,15.89,-17.2,0,0,0,0,0,0,0,0,0,0,0,0,0,0,0,0
580,-35.45,16.63,-41.22,-19.46,-64.98,-36.89,4.806,5.164,-70.2,-3.064,-42.81,-3.419,80.83,-3.146,5.408,-22.6,0,0,0,0,0,0,0,0,0,0,0,0,0,0,0,0
581,-32.1,5.462,-39.83,-21.55,-63.2,-38.39,6.2,6.633,-67.11,-10.54,-46.63,-8.637,68.63,-13.16,-14.98,-29.39,0,0,0,0,0,0,0,0,0,0,0,0,0,0,0,0
582,-30.65,-4.681,-33.24,-15.73,-45.75,-36.74,14.36,15.49,-62.84,-9.868,-47.47,-23.63,63.84,-14.41,-25.16,-24.44,0,0,0,0,0,0,0,0,0,0,0,0,0,0,0,0
583,-36.54,-3.273,-29.63,-17.32,-45.67,-42.62,2.928,18.39,-64.35,-15.94,-56.31,-41.53,50.52,-22.3,-38.98,-37.81,0,0,0,0,0,0,0,0,0,0,0,0,0,0,0,0
584,-46.13,-11.42,-38.66,-17.78,-52.82,-39.08,-6.94,15.25,-65.42,-28.22,-60.53,-52.16,30.11,-38.34,-49.26,-62.23,0,0,0,0,0,0,0,0,0,0,0,0,0,0,0,0
585,-38.62,-22.37,-29.01,-5.112,-29.65,-12.94,7.648,19.78,-51.13,-27.41,-37.74,-37.75,29.99,-41.8,-33.33,-62.01,0,0,0,0,0,0,0,0,0,0,0,0,0,0,0,0
586,-19.9,-18.43,5.94,10.9,-0.7558,10.09,25.84,28.69,-32.57,-20.88,-21.87,-24.51,38.32,-36.69,-24.57,-60.25,0,0,0,0,0,0,0,0,0,0,0,0,0,0,0,0
587,-13.33,-16.11,22.23,17.84,1.125,10.85,28,30.84,-33.75,-19.47,-32.39,-37.59,36.91,-32.86,-43.64,-72.93,0,0,0,0,0,0,0,0,0,0,0,0,0,0,0,0
588,-23.03,-30.7,10.65,10.23,-14.35,-4.906,12.65,23.5,-53.45,-23.68,-47.44,-56.4,31.88,-35.21,-58.52,-76.12,0,0,0,0,0,0,0,0,0,0,0,0,0,0,0,0
589,-43.11,-51.58,-3.16,-5.611,-31.61,-25.54,-10.35,10.78,-68.8,-31.35,-58.89,-60.86,29,-43.56,-54.49,-69.25,0,0,0,0,0,0,0,0,0,0,0,0,0,0,0,0
590,-55.6,-65.28,-15.77,-17.41,-40.04,-40.44,-25.01,6.588,-62.57,-29.9,-56.03,-51.16,29.84,-42.65,-40.22,-61.04,0,0,0,0,0,0,0,0,0,0,0,0,0,0,0,0
591,-46.89,-68.03,-26.98,-24.32,-34.09,-44.29,-29.35,11.18,-41.19,-23.15,-37.33,-38.33,29.89,-40.23,-26.89,-54.77,0,0,0,0,0,0,0,0,0,0,0,0,0,0,0,0
592,-35.31,-64.48,-25.14,-29.52,-22.12,-38.44,-31.14,9.985,-26.38,-29.08,-29.94,-34.16,25.54,-52.89,-27.46,-55.87,0,0,0,0,0,0,0,0,0,0,0,0,0,0,0,0
593,-33.83,-63.19,-20.17,-32,-13.25,-28.88,-29.3,8.227,-19.3,-36.07,-27.17,-32.63,28.65,-56.15,-32.08,-52.22,0,0,0,0,0,0,0,0,0,0,0,0,0,0,0,0
594,-24.79,-56.84,-18.1,-23.08,-4.849,-15.67,-16.62,15.39,-7.712,-30.27,-12.59,-29.91,41.71,-42.9,-32.43,-45.7,0,0,0,0,0,0,0,0,0,0,0,0,0,0,0,0
595,-13.67,-40.58,-8.784,-8.191,-6.761,-8.43,-6.577,19.18,-12.05,-29.85,-23.78,-45.16,40.03,-46.49,-49.9,-58.54,0,0,0,0,0,0,0,0,0,0,0,0,0,0,0,0
596,-31.6,-40.84,-15.79,-13.1,-29.74,-25.27,-18.66,11.6,-44,-40.04,-66.84,-75.79,19.53,-60.83,-75.56,-74.43,0,0,0,0,0,0,0,0,0,0,0,0,0,0,0,0
597,-55.73,-55.23,-41.92,-24.05,-41.49,-39.95,-26.1,3.986,-62.63,-41.28,-86.02,-85.03,15.84,-58.25,-70.85,-67.95,0,0,0,0,0,0,0,0,0,0,0,0,0,0,0,0
598,-45.17,-44.11,-38.35,-17.64,-30.11,-27.35,-5.817,4.058,-51.45,-33.76,-73.91,-69.14,34.62,-52.72,-50.67,-57.07,0,0,0,0,0,0,0,0,0,0,0,0,0,0,0,0
599,-31.91,-21.03,-17.26,-21.81,-35.55,-23.55,5.239,6.713,-44.72,-31.27,-66.87,-64.47,40.52,-59.65,-52.97,-57.7,0,0,0,0,0,0,0,0,0,0,0,0,0,0,0,0
600,-44.46,-19.52,-24.95,-38.77,-48.31,-36.17,-6.428,7.896,-53.43,-32.47,-68.39,-74.96,32.99,-65.01,-61.1,-60.09,0,0,0,0,0,0,0,0,0,0,0,0,0,0,0,0
601,-45.93,-21.33,-37.05,-37.1,-33.89,-27.02,-3.937,9.619,-53.32,-31.73,-61.12,-66.98,35.98,-61.54,-48.38,-61.68,0,0,0,0,0,0,0,0,0,0,0,0,0,0,0,0
602,-26.27,-14.99,-27.12,-27.16,-16.84,-5.75,13.83,14.54,-35.38,-31.34,-41.77,-41.59,39.01,-62.14,-34.41,-65.23,0,0,0,0,0,0,0,0,0,0,0,0,0,0,0,0
603,-21,-18.84,-16.63,-27.08,-16.85,-2.762,15.98,15.7,-21.14,-34.5,-31.01,-34.87,31.68,-69.64,-36.24,-62.72,0,0,0,0,0,0,0,0,0,0,0,0,0,0,0,0
604,-33.6,-29.67,-17.59,-33.41,-18.3,-7.098,5.283,3.783,-21.94,-39.16,-36.73,-40.83,32.43,-67.83,-34.85,-51.44,0,0,0,0,0,0,0,0,0,0,0,0,0,0,0,0
605,-39.16,-35.69,-25.78,-44.33,-20.63,-5.602,2.919,-8.015,-28.14,-45.02,-36.54,-33.34,39.56,-62.96,-28.71,-46.79,0,0,0,0,0,0,0,0,0,0,0,0,0,0,0,0
606,-36.02,-42.41,-33.99,-49.57,-26.21,-4.013,12.4,-3.32,-36.17,-50.31,-34.11,-28.44,39.65,-70.74,-32.63,-48,0,0,0,0,0,0,0,0,0,0,0,0,0,0,0,0
607,-30.55,-41.85,-25.2,-32.74,-23.65,5.24,35.44,8.69,-34.29,-42.4,-41.52,-30.92,47.6,-68.6,-31.71,-33.73,0,0,0,0,0,0,0,0,0,0,0,0,0,0,0,0
608,-21.42,-22.26,-3.629,-4.146,-18.21,21.66,63.75,19.65,-25.19,-26.41,-44.52,-27.5,60.91,-52.26,-29.29,-20.54,0,0,0,0,0,0,0,0,0,0,0,0,0,0,0,0
609,-26.3,-10.21,-1.109,4.712,-25.28,21.38,70.12,29.89,-38.84,-24.42,-49.22,-35.36,55.97,-54.7,-49.97,-35.36,0,0,0,0,0,0,0,0,0,0,0,0,0,0,0,0
610,-46.43,-22.51,-17.58,-6.23,-37.98,6.71,55.54,28.08,-56.71,-31.94,-61.24,-51.87,42.5,-67.97,-69.4,-54.02,0,0,0,0,0,0,0,0,0,0,0,0,0,0,0,0
611,-56.53,-35.94,-27.31,-14.28,-49.05,-6.869,38.74,11.85,-51.6,-38.2,-64.71,-59.54,33.96,-69.46,-69.19,-59.22,0,0,0,0,0,0,0,0,0,0,0,0,0,0,0,0
612,-66.28,-47.45,-33.66,-23.67,-60.25,-20.57,19.58,1.203,-51.41,-45.24,-64.67,-68.31,29.19,-70.21,-69.8,-63.26,0,0,0,0,0,0,0,0,0,0,0,0,0,0,0,0
613,-78.39,-61.77,-41.02,-35.82,-60.68,-25.6,7.236,3.889,-57.14,-47.03,-66.32,-71.32,33.13,-74.64,-64.47,-60.99,0,0,0,0,0,0,0,0,0,0,0,0,0,0,0,0
614,-71.33,-64.15,-43.81,-40.02,-56.99,-24.91,8.898,4.361,-51.71,-45.58,-67.4,-63.22,37.96,-75.54,-53.08,-54.92,0,0,0,0,0,0,0,0,0,0,0,0,0,0,0,0
615,-67.38,-60.31,-53.85,-43.38,-61.72,-29.5,11.93,0.206,-54.11,-46.58,-72.02,-58.16,40.33,-72.05,-56.23,-56.5,0,0,0,0,0,0,0,0,0,0,0,0,0,0,0,0
616,-73.29,-62.01,-64.08,-46.27,-55.75,-26.2,9.429,-1.886,-60.27,-48.56,-69.21,-50.61,43.06,-68.9,-61.31,-56.9,0,0,0,0,0,0,0,0,0,0,0,0,0,0,0,0
617,-63.2,-70.68,-58.92,-48.32,-42.56,-24.27,-4.369,-13.83,-54.36,-57.34,-61.29,-51.34,31.74,-72.88,-65.96,-59.93,0,0,0,0,0,0,0,0,0,0,0,0,0,0,0,0
618,-59.88,-87.59,-55.64,-57.89,-46.26,-39.66,-21.58,-29.99,-56.3,-61,-67.61,-71.37,19.84,-74.33,-82.03,-74.08,0,0,0,0,0,0,0,0,0,0,0,0,0,0,0,0
619,-76.59,-96.01,-63.3,-64.95,-59.05,-55.1,-25.89,-28.75,-74.49,-48.54,-84.22,-82.23,21.55,-69.6,-90.67,-85.8,0,0,0,0,0,0,0,0,0,0,0,0,0,0,0,0
620,-86.77,-94.7,-70.32,-64.65,-69.74,-66.47,-31.26,-26.58,-84.38,-43.39,-99.68,-81.71,10.68,-74.89,-88.06,-88.88,0,0,0,0,0,0,0,0,0,0,0,0,0,0,0,0
621,-92.17,-103.7,-73.49,-64.7,-73.84,-75.21,-41.13,-36.05,-75.95,-48.2,-102.5,-81.61,-1.885,-85.01,-86.96,-85.42,0,0,0,0,0,0,0,0,0,0,0,0,0,0,0,0
622,-95.62,-109.1,-76.21,-64.82,-70.28,-73.34,-37.47,-34.25,-66.32,-46.84,-84.87,-68.78,8.273,-87.87,-81.58,-77.82,0,0,0,0,0,0,0,0,0,0,0,0,0,0,0,0
623,-83.38,-99.28,-80.36,-64.35,-68.74,-66.33,-27.02,-20.84,-58.57,-47.93,-64.81,-53.8,15.83,-88.41,-73.75,-77.3,0,0,0,0,0,0,0,0,0,0,0,0,0,0,0,0
624,-65.99,-91.86,-76.32,-60,-63.45,-54.07,-16.62,-12.69,-47.28,-50.54,-57.69,-49.15,16.19,-84.18,-66.11,-80.38,0,0,0,0,0,0,0,0,0,0,0,0,0,0,0,0
625,-58.3,-87.87,-65.61,-58.64,-56.45,-45.76,-7.542,-12.01,-47.4,-47.32,-57.42,-44.56,22.58,-79.67,-59.02,-78.34,0,0,0,0,0,0,0,0,0,0,0,0,0,0,0,0
626,-57.29,-85.67,-68.67,-67.35,-64.85,-56.51,-9.317,-18.59,-55.24,-49.64,-55.29,-45.25,19.65,-84.96,-64.33,-80.66,0,0,0,0,0,0,0,0,0,0,0,0,0,0,0,0
627,-58.27,-88.5,-70.76,-63.06,-70.07,-60.98,-8.565,-21.91,-50.68,-55.43,-50.78,-51.72,14.11,-86.8,-70.37,-85.84,0,0,0,0,0,0,0,0,0,0,0,0,0,0,0,0
628,-56.19,-82.49,-50.94,-43.66,-54.66,-44.9,4.718,-14.34,-44.74,-55.41,-53.61,-53.78,20.06,-82.73,-66.8,-87.52,0,0,0,0,0,0,0,0,0,0,0,0,0,0,0,0
629,-51.92,-72.92,-44.01,-42.81,-49.19,-43.22,7.122,-12.95,-55.74,-59.59,-68.54,-62.71,19.73,-87.66,-75.63,-93.44,0,0,0,0,0,0,0,0,0,0,0,0,0,0,0,0
630,-61.08,-78.47,-67.4,-57.64,-70.37,-64.5,-5.036,-19.07,-78.92,-66.92,-88.55,-79.53,18.89,-87.58,-86.92,-91.84,0,0,0,0,0,0,0,0,0,0,0,0,0,0,0,0
631,-79.17,-79.85,-76.59,-56.75,-82.6,-68.96,-3.183,-11.25,-90.66,-58.59,-99.53,-78.41,37.77,-71.21,-75.11,-71.69,0,0,0,0,0,0,0,0,0,0,0,0,0,0,0,0
632,-77.05,-61.97,-58.93,-42.1,-68.75,-48.84,14.32,3.099,-80.15,-41.09,-88.24,-57.38,54.6,-64.27,-61.2,-56.44,0,0,0,0,0,0,0,0,0,0,0,0,0,0,0,0
633,-60.47,-47.94,-50.55,-34.01,-62.43,-38.47,23.28,3.805,-72.84,-35.3,-70.17,-43.61,55.08,-70.05,-59.31,-54.12,0,0,0,0,0,0,0,0,0,0,0,0,0,0,0,0
634,-53.53,-42.77,-50.97,-28.37,-72.09,-35.01,26.64,3.311,-79.05,-37.52,-72.33,-47.83,54.31,-67.47,-60.33,-57.08,0,0,0,0,0,0,0,0,0,0,0,0,0,0,0,0
635,-51.39,-38.22,-44.73,-21.16,-77.02,-20.66,35.23,10.57,-83.74,-41.59,-87.27,-61.18,47.03,-67.24,-71.22,-73.38,0,0,0,0,0,0,0,0,0,0,0,0,0,0,0,0
636,-50,-41.14,-44.52,-23.43,-76.26,-9.679,41.2,12.45,-84.68,-47.82,-91.23,-72.45,38.64,-73.64,-81.56,-84.41,0,0,0,0,0,0,0,0,0,0,0,0,0,0,0,0
637,-46.52,-37.94,-38.13,-21.54,-62.86,4.534,49.57,15.16,-76.67,-47.72,-82.65,-72.66,51.34,-66.56,-76.59,-70.83,0,0,0,0,0,0,0,0,0,0,0,0,0,0,0,0
638,-33.26,-22.32,-15.94,-6.511,-43.09,25.7,63.47,22.07,-63.6,-45.77,-75.76,-65.15,65.09,-56.08,-72.22,-60.46,0,0,0,0,0,0,0,0,0,0,0,0,0,0,0,0
639,-20.96,-19.01,-8.835,-1.473,-41.67,28.34,70.45,16.36,-59.41,-47.72,-65.91,-52.22,65.87,-55.34,-61.27,-58.82,0,0,0,0,0,0,0,0,0,0,0,0,0,0,0,0
640,-9.846,-21.85,-10.78,-4.432,-42.22,26.15,73.3,8.065,-59.4,-44.33,-47.01,-36.07,72.36,-53.54,-35.84,-47.94,0,0,0,0,0,0,0,0,0,0,0,0,0,0,0,0
641,-1.713,-15.57,-2.719,-3.78,-38.26,28.41,69.63,10.51,-68.88,-40.3,-48.37,-38.28,74.88,-52.93,-34.15,-46.81,0,0,0,0,0,0,0,0,0,0,0,0,0,0,0,0
642,-17.62,-13.86,-9.683,-11.55,-52.73,11.46,55.18,11.67,-86.97,-39.9,-74.82,-55.31,69.92,-53.08,-54.43,-59.5,0,0,0,0,0,0,0,0,0,0,0,0,0,0,0,0
643,-37.65,-12.27,-26.78,-17.3,-67.19,-2.987,55.14,16.03,-93.03,-36.94,-90.87,-58.44,75.79,-46.06,-56.66,-61.58,0,0,0,0,0,0,0,0,0,0,0,0,0,0,0,0
644,-35.59,-4.126,-24.05,-4.238,-63.56,6.47,74.17,32.03,-93.58,-38.34,-92.99,-55.15,77.45,-44.14,-53.66,-58.01,0,0,0,0,0,0,0,0,0,0,0,0,0,0,0,0
645,-31.85,-8.297,-12.02,11.02,-56.29,14.16,82.29,41.96,-90.12,-48.52,-86.94,-54.6,63.98,-53.87,-62.2,-64,0,0,0,0,0,0,0,0,0,0,0,0,0,0,0,0
646,-31.22,-24.39,-6.801,14.41,-50.05,12.93,74.04,31.13,-76.87,-62.24,-75.98,-47.52,49.59,-66.48,-69.08,-80.55,0,0,0,0,0,0,0,0,0,0,0,0,0,0,0,0
647,-25.25,-30.77,-6.259,13.89,-49.33,13.86,68.93,12.61,-80,-70.2,-85.99,-45.79,36.64,-76.37,-80.61,-102.4,0,0,0,0,0,0,0,0,0,0,0,0,0,0,0,0
648,-27.34,-21.17,-8.168,15.86,-58.48,15.11,74.53,13.49,-94.18,-62.5,-100,-47.8,34.07,-76.56,-92.85,-113.2,0,0,0,0,0,0,0,0,0,0,0,0,0,0,0,0
649,-31.67,-8.981,-12.14,15.62,-68.15,11.46,79.55,28.67,-91.59,-52.2,-86.41,-38.45,47.17,-69.39,-87.8,-107.4,0,0,0,0,0,0,0,0,0,0,0,0,0,0,0,0
650,-26.08,-7.678,-18.52,8.701,-72.51,-1.012,73.55,28.27,-89.65,-52.39,-77.88,-34.43,54.39,-67.4,-82.09,-100.2,0,0,0,0,0,0,0,0,0,0,0,0,0,0,0,0
651,-28.99,-16.39,-23.58,-2.36,-75.51,-14.48,62.16,18.07,-97.14,-54.43,-90.55,-47.28,48.91,-72.13,-87.8,-101.1,0,0,0,0,0,0,0,0,0,0,0,0,0,0,0,0
652,-43.92,-30.3,-27.35,-15.12,-82.3,-17.81,48.66,8.503,-96.51,-59.34,-94.79,-65.46,43.28,-77.96,-91.31,-106.5,0,0,0,0,0,0,0,0,0,0,0,0,0,0,0,0
653,-46.26,-44.54,-38.03,-30.76,-86.57,-19.84,26.46,-13.13,-97.81,-68.53,-92.7,-80.19,42.08,-80.17,-93.23,-106.6,0,0,0,0,0,0,0,0,0,0,0,0,0,0,0,0
654,-39.25,-52.28,-53.5,-50.95,-86.26,-31.01,0.8441,-32.28,-110.6,-73.64,-99.62,-86.02,44.29,-77.35,-97.08,-99.56,0,0,0,0,0,0,0,0,0,0,0,0,0,0,0,0
655,-46.15,-57.53,-67.67,-71.52,-94.28,-45.77,-19.46,-35.74,-116.7,-77.4,-107.2,-89.26,40.64,-75.16,-101,-100.2,0,0,0,0,0,0,0,0,0,0,0,0,0,0,0,0
656,-62.46,-66.44,-81.73,-84.8,-102.5,-57.87,-35.87,-38.81,-113.5,-80.36,-108.1,-94.6,27.06,-77.39,-110.2,-114.2,0,0,0,0,0,0,0,0,0,0,0,0,0,0,0,0
657,-69.14,-71.69,-88.98,-89.38,-96.75,-61.07,-39.18,-36.34,-113.9,-80.33,-104.4,-91.79,16.65,-85.2,-117.7,-128.8,0,0,0,0,0,0,0,0,0,0,0,0,0,0,0,0
658,-63.11,-69.03,-86.81,-89.28,-93.41,-54.54,-25.34,-26.83,-113.1,-82.25,-103.4,-85.66,13.42,-97.63,-111.4,-132.2,0,0,0,0,0,0,0,0,0,0,0,0,0,0,0,0
659,-58.11,-66.02,-87.3,-88.76,-97.7,-53.89,-16.7,-29.05,-110,-81.33,-106.7,-80.76,18.03,-100.2,-92.18,-119.8,0,0,0,0,0,0,0,0,0,0,0,0,0,0,0,0
660,-51.9,-58.26,-76.37,-78.71,-81.85,-45.05,-8.597,-29.29,-100.1,-69.19,-89.49,-56.6,42.94,-80.23,-53.78,-88.85,0,0,0,0,0,0,0,0,0,0,0,0,0,0,0,0
661,-14.52,-31.5,-34.12,-52.08,-39.13,4.279,23.65,-12.02,-60.61,-47.19,-40.62,-13.32,78.36,-50.32,-0.1057,-43.5,0,0,0,0,0,0,0,0,0,0,0,0,0,0,0,0
662,34.87,-0.9883,0.1847,-35.85,-10.53,51.88,52.98,0.5127,-26.54,-28.21,-11.93,8.82,92.16,-34.29,20.62,-19.4,0,0,0,0,0,0,0,0,0,0,0,0,0,0,0,0
663,32.56,3.191,-13.49,-46.64,-33.88,38.6,44.48,-7.7,-65.75,-37.86,-53.78,-22.93,71.27,-48.34,-32.87,-57.8,0,0,0,0,0,0,0,0,0,0,0,0,0,0,0,0
664,-14.78,-20.62,-56.46,-71.99,-93.8,-8.462,10.84,-32.63,-142.4,-77.83,-135.8,-87.46,32.17,-88.49,-121.9,-127.6,0,0,0,0,0,0,0,0,0,0,0,0,0,0,0,0
665,-54.66,-55.94,-92.99,-99.75,-133.3,-37.28,-17.75,-54.56,-172.4,-108.4,-186.7,-123.9,6.772,-120.9,-168.2,-160.3,0,0,0,0,0,0,0,0,0,0,0,0,0,0,0,0
666,-65.92,-78.88,-91.11,-98.4,-117.2,-31.75,-18.45,-49.13,-154.5,-112.3,-175.2,-113.4,5.481,-124.5,-159.3,-155.1,0,0,0,0,0,0,0,0,0,0,0,0,0,0,0,0
667,-51.45,-77.39,-66.13,-75.61,-87.58,-13.49,-7.902,-40.64,-136.6,-114.6,-140.8,-102.1,5.007,-123.9,-143.6,-150.9,0,0,0,0,0,0,0,0,0,0,0,0,0,0,0,0
668,-42.97,-74.44,-69.74,-82.76,-91.95,-17.06,-14.07,-57.64,-140.2,-117.5,-132.6,-109.3,2.268,-129.5,-133.1,-148.6,0,0,0,0,0,0,0,0,0,0,0,0,0,0,0,0
669,-53.97,-75.23,-81.98,-88.38,-102.7,-27.31,-12.28,-64.22,-147.8,-104.5,-131.2,-100.4,15.14,-119.4,-105.2,-130.3,0,0,0,0,0,0,0,0,0,0,0,0,0,0,0,0
670,-48.37,-61.88,-75.86,-67.41,-102.2,-20.88,6.826,-48.65,-140.9,-92.19,-115.6,-79.24,31.7,-103.5,-80.55,-106.6,0,0,0,0,0,0,0,0,0,0,0,0,0,0,0,0
671,-30.82,-52.95,-75.02,-67.45,-102.9,-16.93,15.01,-41.61,-136.9,-91.29,-125.1,-87.56,35.62,-102.7,-91.81,-105.3,0,0,0,0,0,0,0,0,0,0,0,0,0,0,0,0
672,-36.09,-59.07,-55.63,-60.82,-86.74,-16.5,21.61,-28.56,-150,-85.6,-156,-113.4,34.2,-101.6,-114.2,-120.3,0,0,0,0,0,0,0,0,0,0,0,0,0,0,0,0
673,-49.22,-56.25,-16.88,-24.58,-66.75,-12.29,31.01,-8.284,-158.8,-80.79,-158.7,-117.2,31.61,-94.74,-119.6,-121.5,0,0,0,0,0,0,0,0,0,0,0,0,0,0,0,0
674,-49.97,-52.48,-13.73,-18.39,-69.13,-15.69,20.99,-17.28,-150.4,-86.8,-145.9,-111.5,27.33,-96.36,-123.4,-117.2,0,0,0,0,0,0,0,0,0,0,0,0,0,0,0,0
675,-49.28,-65.88,-28.35,-36.4,-67.14,-21.4,1.422,-39.58,-141.4,-92.5,-149.1,-122.4,20.98,-101.3,-132,-128.7,0,0,0,0,0,0,0,0,0,0,0,0,0,0,0,0
676,-56.02,-76.22,-38.66,-50.86,-64.23,-30.76,-14.3,-49.56,-146.4,-96.9,-155.2,-140.8,5.407,-107,-136,-147.4,0,0,0,0,0,0,0,0,0,0,0,0,0,0,0,0
677,-70.74,-79.99,-67.25,-80.22,-86.77,-56.48,-35.06,-65.71,-160,-106.1,-158.3,-156.3,-17.89,-122.8,-144.3,-166.6,0,0,0,0,0,0,0,0,0,0,0,0,0,0,0,0
678,-99.74,-105.7,-95.35,-109.2,-113.5,-91.02,-65.49,-93.85,-171.9,-118.2,-164,-171,-35.85,-137,-153.2,-181.7,0,0,0,0,0,0,0,0,0,0,0,0,0,0,0,0
679,-141.1,-143.7,-116.8,-126.8,-129.2,-124.5,-98.44,-116.5,-179.2,-127,-161.6,-179.1,-43.55,-136.3,-146.9,-180.8,0,0,0,0,0,0,0,0,0,0,0,0,0,0,0,0
680,-165.5,-159.9,-147.6,-146.2,-139.1,-147.5,-117.4,-120.5,-183.3,-124.4,-152.7,-175.9,-45.86,-131,-134.6,-172.5,0,0,0,0,0,0,0,0,0,0,0,0,0,0,0,0
681,-158.6,-163.2,-163.2,-156.8,-139.6,-152,-121.4,-113.2,-180.8,-117.8,-146.4,-163.7,-45.88,-129.4,-127.7,-169.3,0,0,0,0,0,0,0,0,0,0,0,0,0,0,0,0
682,-147.1,-168.2,-158,-157.2,-131.2,-149.3,-125.4,-113.7,-169.8,-118.1,-139.5,-147,-44.76,-128.9,-125.1,-166,0,0,0,0,0,0,0,0,0,0,0,0,0,0,0,0
683,-145.4,-165.1,-156.5,-157.7,-123.7,-150.6,-129.3,-117.6,-161.3,-115.5,-140.2,-140.1,-44.95,-129.6,-128.8,-165.2,0,0,0,0,0,0,0,0,0,0,0,0,0,0,0,0
684,-145.2,-161.1,-161,-159.1,-127.7,-153,-133.2,-121.9,-165.2,-109.3,-152.3,-154.7,-48.87,-130.5,-135.9,-173,0,0,0,0,0,0,0,0,0,0,0,0,0,0,0,0
685,-150.8,-163.5,-165.8,-165.5,-139.4,-157,-145.4,-138.1,-175.1,-115.1,-162,-177.4,-59.84,-133.5,-145.7,-181.1,0,0,0,0,0,0,0,0,0,0,0,0,0,0,0,0
686,-164.4,-166.1,-170.3,-174.7,-145.4,-165.3,-156.2,-153.5,-180,-128.7,-170.4,-187.5,-73.05,-140,-156.8,-177.8,0,0,0,0,0,0,0,0,0,0,0,0,0,0,0,0
687,-172.2,-175,-172.1,-176.5,-143.4,-167.2,-153.5,-154.1,-174.5,-132.2,-174.7,-183.5,-76.24,-142.4,-154.4,-162.6,0,0,0,0,0,0,0,0,0,0,0,0,0,0,0,0
688,-166.4,-184.2,-170.8,-170.4,-138,-159.8,-149.8,-153.6,-165.3,-124,-165.8,-173.6,-75.17,-140.1,-144,-149.1,0,0,0,0,0,0,0,0,0,0,0,0,0,0,0,0
689,-163.8,-183.3,-176,-176,-142.6,-166.3,-161.2,-163.4,-165.7,-116.3,-165.4,-166.5,-78.84,-134.7,-145.9,-144.8,0,0,0,0,0,0,0,0,0,0,0,0,0,0,0,0
690,-176.3,-185.3,-187.9,-199.2,-158.6,-183.4,-175.6,-177.5,-175.3,-110,-183.3,-168.4,-76.73,-122.9,-148.6,-139.7,0,0,0,0,0,0,0,0,0,0,0,0,0,0,0,0
691,-184,-186.6,-184.6,-205.6,-157.5,-178.9,-172.8,-178.8,-177.2,-98.88,-191.4,-167.2,-65.72,-115.9,-136.1,-127.3,0,0,0,0,0,0,0,0,0,0,0,0,0,0,0,0
692,-167.4,-170.3,-164.1,-187.9,-128.8,-150.7,-156.3,-167.6,-149.1,-86.03,-170.9,-136.4,-49.89,-113.7,-113.1,-106.5,0,0,0,0,0,0,0,0,0,0,0,0,0,0,0,0
693,-130.9,-149.1,-145.6,-174.3,-94.35,-116.8,-140.2,-162.2,-100.6,-76.66,-130.1,-83.78,-31.54,-101.5,-87.31,-80.42,0,0,0,0,0,0,0,0,0,0,0,0,0,0,0,0
694,-91.67,-135.3,-129.9,-162.4,-72.13,-92.56,-136.2,-158.6,-75.08,-73.23,-98.27,-48.31,-24.87,-95.62,-67.63,-64.03,0,0,0,0,0,0,0,0,0,0,0,0,0,0,0,0
695,-68.83,-126.8,-119.5,-147.7,-63.05,-85.18,-142.6,-153.9,-69.51,-75.83,-85.83,-33.59,-25.49,-103.3,-53.64,-58.58,0,0,0,0,0,0,0,0,0,0,0,0,0,0,0,0
696,-61.11,-127.9,-116.8,-142,-54.7,-78.19,-138.3,-159.6,-52.48,-77.25,-65.17,-14.63,-14.1,-92.6,-40.45,-45.47,0,0,0,0,0,0,0,0,0,0,0,0,0,0,0,0
697,-51.16,-128.3,-104,-131.1,-38.64,-63.23,-118.5,-160.6,-32.76,-71.26,-38.51,5.873,-3.208,-64.4,-38.3,-23.89,0,0,0,0,0,0,0,0,0,0,0,0,0,0,0,0
698,-38.04,-114.3,-85.22,-112.3,-22.65,-54.64,-104.7,-150.3,-18.31,-61.15,-34.66,10.88,-5.192,-47.34,-47.38,-8.422,0,0,0,0,0,0,0,0,0,0,0,0,0,0,0,0
699,-33.23,-110.9,-87.92,-110.3,-21.43,-55.04,-105.2,-151.8,-7.959,-50.78,-37.31,3.297,-4.747,-34.92,-49.37,2.119,0,0,0,0,0,0,0,0,0,0,0,0,0,0,0,0
700,-31.51,-122,-100.2,-117,-25.89,-52.29,-105.1,-159,-5.173,-35.88,-21.62,0.1224,3.272,-16.27,-43.01,14.3,0,0,0,0,0,0,0,0,0,0,0,0,0,0,0,0
701,-22.73,-112.6,-94.69,-112.2,-12.95,-44.79,-99.42,-155.2,-0.4409,-17.74,-11.3,3.336,6.062,-4.63,-42.24,22.41,0,0,0,0,0,0,0,0,0,0,0,0,0,0,0,0
702,-27.27,-102.4,-91.67,-110.8,-8.803,-53.52,-103.9,-151.8,-5.67,-7.447,-25.11,-5.093,-1.644,1.906,-46.24,24.72,0,0,0,0,0,0,0,0,0,0,0,0,0,0,0,0
703,-52.56,-117.3,-107.7,-114,-31.58,-77.56,-115.7,-148.9,-22.04,-0.621,-31.1,-18.61,-8.102,17.31,-44.55,28.1,0,0,0,0,0,0,0,0,0,0,0,0,0,0,0,0
704,-62.87,-121.9,-112.2,-105.8,-33.88,-84,-117,-139.9,-21.65,8.502,-15.56,-12.27,-5.614,29.87,-38.17,31.52,0,0,0,0,0,0,0,0,0,0,0,0,0,0,0,0
705,-57.36,-114.6,-98.76,-99.69,-18.52,-77.83,-108.6,-136.8,-19.73,7.975,-8.996,2.704,-4.32,27.42,-32.07,32.11,0,0,0,0,0,0,0,0,0,0,0,0,0,0,0,0
706,-57.8,-115.1,-89.93,-96.56,-24.5,-75.37,-89.88,-140.3,-20.75,3.156,-9.424,4.721,-10.4,24.38,-29.08,30.82,0,0,0,0,0,0,0,0,0,0,0,0,0,0,0,0
707,-51.19,-109.5,-86.02,-84.81,-29.02,-63.28,-72.1,-148.9,-3.175,5.144,-0.8444,-0.4329,-18.7,30.57,-31.8,33.29,0,0,0,0,0,0,0,0,0,0,0,0,0,0,0,0
708,-43.87,-107.1,-83.23,-84.93,-22.74,-52.68,-79.7,-167.7,6.393,5.547,7.119,3.581,-17.85,44.6,-24.66,59.04,0,0,0,0,0,0,0,0,0,0,0,0,0,0,0,0
709,-46.55,-111.2,-82.27,-93.95,-20.39,-54.44,-92.4,-178.3,7.549,8.96,24.92,26.66,-1.949,63.36,-0.4496,103.8,0,0,0,0,0,0,0,0,0,0,0,0,0,0,0,0
710,-41.98,-102,-84.1,-91.25,-14.2,-54.38,-96.15,-175.4,23.2,21.89,48.59,53.76,9.433,76.78,10.35,124.2,0,0,0,0,0,0,0,0,0,0,0,0,0,0,0,0
711,-40.56,-93.86,-91.84,-92.64,-13.19,-60.4,-114,-178.9,25.77,36.29,49.9,62.65,5.859,88.6,1.889,113.5,0,0,0,0,0,0,0,0,0,0,0,0,0,0,0,0
712,-50.1,-89.7,-93.94,-97.31,-20.13,-74.63,-123.3,-176,18.57,54.49,45.77,60.35,5.667,106.5,1.594,107.6,0,0,0,0,0,0,0,0,0,0,0,0,0,0,0,0
713,-50.83,-79.61,-88.4,-86.86,-20.96,-77.92,-100.6,-153.6,28.34,73.63,51.43,61.54,9.196,119.4,7.649,114.2,0,0,0,0,0,0,0,0,0,0,0,0,0,0,0,0
714,-42.95,-74.71,-85.16,-72.48,-18.08,-69.07,-79.31,-136.2,37.61,83.92,58.93,71.13,8.502,128.4,12.42,124.4,0,0,0,0,0,0,0,0,0,0,0,0,0,0,0,0
715,-30.07,-63.96,-78.7,-66.14,-11.96,-59.12,-73.47,-130.9,39.05,90.81,77.3,85.32,11.64,139.6,22.88,141.2,0,0,0,0,0,0,0,0,0,0,0,0,0,0,0,0
716,-13.94,-48,-72.16,-64.14,-10.83,-57.18,-68.36,-127.7,43.04,96.68,91.39,92.07,13.88,144.3,33.43,158.8,0,0,0,0,0,0,0,0,0,0,0,0,0,0,0,0
717,-6.823,-50.29,-73.46,-61.89,-21.65,-65.11,-66.29,-130.1,51.62,96.36,91.33,97.31,9.552,145.7,43.61,171.8,0,0,0,0,0,0,0,0,0,0,0,0,0,0,0,0
718,-5.252,-54.66,-77.75,-63.18,-23.16,-71.09,-70.1,-137,66.29,93.85,107.5,111.1,11.33,154.9,57.67,186.6,0,0,0,0,0,0,0,0,0,0,0,0,0,0,0,0
719,3.944,-44,-75.65,-62.41,-3.282,-57.74,-65.39,-135.4,81.14,102.3,134,122.2,19.43,171.1,64.29,197.4,0,0,0,0,0,0,0,0,0,0,0,0,0,0,0,0
720,19.46,-32.23,-60.69,-44.7,20.56,-33.2,-51.03,-125.2,92,122.6,142.2,125.9,15.06,182,59.68,192.5,0,0,0,0,0,0,0,0,0,0,0,0,0,0,0,0
721,22.16,-28.64,-57.23,-38.85,20.64,-33.19,-52.77,-129.2,96.22,134.2,136,128.5,-7.236,175.4,54.31,179.6,0,0,0,0,0,0,0,0,0,0,0,0,0,0,0,0
722,12.94,-30.67,-74.95,-60.32,4.004,-49.26,-67.45,-150.2,92.92,134.1,125.2,128.1,-33.32,165.9,47.12,168.3,0,0,0,0,0,0,0,0,0,0,0,0,0,0,0,0
723,17.01,-36.32,-81.83,-64.35,5.605,-49.94,-71.94,-161.7,92.89,135.5,119,118.4,-54.86,167,29.95,154.3,0,0,0,0,0,0,0,0,0,0,0,0,0,0,0,0
724,21.26,-53.03,-86.15,-58.98,14.25,-55.14,-83.88,-168.3,98.99,132,127.9,111.1,-67.06,166.7,22.69,149.6,0,0,0,0,0,0,0,0,0,0,0,0,0,0,0,0
725,17.28,-69.79,-91.37,-74.03,17.77,-64.73,-107,-183.3,111.2,126.2,148.5,130.9,-62.72,170.6,45.73,171.7,0,0,0,0,0,0,0,0,0,0,0,0,0,0,0,0
726,30.76,-66.21,-71.26,-77.41,33.39,-56.89,-118.4,-190.6,127.6,131.7,168.9,159,-56.08,187.9,64.47,198,0,0,0,0,0,0,0,0,0,0,0,0,0,0,0,0
727,41.12,-60.76,-62.36,-69.2,39.72,-56.12,-126.9,-193,136.9,143.9,181.9,162.8,-57.44,206.5,57.98,205,0,0,0,0,0,0,0,0,0,0,0,0,0,0,0,0
728,36.68,-58.51,-74.98,-74.53,36.11,-59.1,-132.4,-196.9,145.4,160.3,186,163.3,-53.14,222,64.02,206.3,0,0,0,0,0,0,0,0,0,0,0,0,0,0,0,0
729,49.43,-41.47,-63.95,-74.18,53.56,-42.46,-121.1,-183.9,163.4,180,186.6,176.3,-48.73,229.8,83.32,212.5,0,0,0,0,0,0,0,0,0,0,0,0,0,0,0,0
730,69.06,-27.72,-46.17,-56.64,71.38,-25.04,-103.4,-156.5,185.6,198.5,199.1,189.2,-52.61,227.5,84.66,218.9,0,0,0,0,0,0,0,0,0,0,0,0,0,0,0,0
731,83.82,-24.22,-37.63,-36.66,76.44,-13.26,-89.58,-137.8,199.5,214,215,201.2,-55.14,229.4,78.33,220.2,0,0,0,0,0,0,0,0,0,0,0,0,0,0,0,0
732,100.4,-21.03,-30.41,-33.25,80.97,-10.04,-92.85,-140.1,189.5,212.7,208.8,206.7,-64.23,230.5,79.49,218.7,0,0,0,0,0,0,0,0,0,0,0,0,0,0,0,0
733,104.9,-29.48,-40.32,-45.27,79.53,-20.58,-108.5,-154.2,182,199,208.1,213,-77.81,223.4,89.32,227.8,0,0,0,0,0,0,0,0,0,0,0,0,0,0,0,0
734,108.6,-37.3,-40.79,-44.81,86.01,-17.67,-105.2,-162.9,203.5,195.8,231.5,228.6,-74.34,229.3,107.7,244.6,0,0,0,0,0,0,0,0,0,0,0,0,0,0,0,0
735,119.2,-26.88,-20.88,-34.96,101.9,-6.82,-96.27,-171.9,210.4,200,231.7,222.1,-65.5,249.3,117.7,252.8,0,0,0,0,0,0,0,0,0,0,0,0,0,0,0,0
736,116.6,-14.6,-24.86,-36.34,101.5,-16.2,-106.1,-180.1,190.6,205.7,212.1,199,-69.88,254.6,113.9,252.3,0,0,0,0,0,0,0,0,0,0,0,0,0,0,0,0
737,110.6,-11.56,-38.87,-41.32,96.54,-25.66,-113.5,-175.9,188.5,213.3,213.9,198.6,-76.75,244.2,111.9,244.8,0,0,0,0,0,0,0,0,0,0,0,0,0,0,0,0
738,115.9,-11.09,-31.04,-42.4,107.6,-14.9,-107.8,-176.9,202.8,214.6,224,203.6,-78.61,244.5,111.9,238.3,0,0,0,0,0,0,0,0,0,0,0,0,0,0,0,0
739,129.1,-4.1,-16.89,-34.7,127.5,3.008,-99.11,-179,214.9,217.6,233.3,197.3,-80.76,255.8,109.5,245.6,0,0,0,0,0,0,0,0,0,0,0,0,0,0,0,0
740,148.1,8.473,-4.166,-18.22,145,15.74,-88.29,-161.9,227.9,226.8,247,207.8,-82.57,261.1,116.5,252.5,0,0,0,0,0,0,0,0,0,0,0,0,0,0,0,0
741,167.3,19.7,8.273,-6.829,157.5,26.93,-75.38,-151.9,239.6,229.7,252.2,233.3,-80.66,266.7,135.3,249.4,0,0,0,0,0,0,0,0,0,0,0,0,0,0,0,0
742,184.4,28.3,16.32,-1.108,167.9,35.2,-67.66,-156.9,242.9,228,247.2,235.9,-84.18,272.3,142.6,249.7,0,0,0,0,0,0,0,0,0,0,0,0,0,0,0,0
743,183.8,22.77,8.736,-5.119,161.3,19.98,-77.9,-158,230,224,237,215,-97.7,264.9,129,252.1,0,0,0,0,0,0,0,0,0,0,0,0,0,0,0,0
744,160.4,9.654,-17.31,-22.51,135.3,-7.342,-93.21,-166.4,213.6,221.8,230.2,207.3,-101.1,261.8,120.7,253.4,0,0,0,0,0,0,0,0,0,0,0,0,0,0,0,0
745,152.8,20.65,-21.44,-23.13,130.7,-9.024,-87.07,-171.3,210.2,234.9,227.9,209.2,-91.95,271.1,123.8,254.8,0,0,0,0,0,0,0,0,0,0,0,0,0,0,0,0
746,164.8,45.76,6.042,0.1854,147.8,4.017,-72.44,-152.5,204.8,251,218.9,200.2,-91.24,272,121.5,251.8,0,0,0,0,0,0,0,0,0,0,0,0,0,0,0,0
747,169.5,62.11,17.99,12.05,150.3,14.54,-64.1,-139.9,206.1,252.8,224.2,210.1,-90.46,272.4,123.4,254.5,0,0,0,0,0,0,0,0,0,0,0,0,0,0,0,0
748,184.5,77.05,18.85,12.43,158.9,37.77,-49.95,-143.8,231.7,248.5,247,239.6,-83.89,275.9,132.9,261,0,0,0,0,0,0,0,0,0,0,0,0,0,0,0,0
749,207.4,82.96,37.98,29.64,183.1,57.89,-37.94,-135.5,242.5,243.7,254,246.6,-90.41,265.8,135.9,257.4,0,0,0,0,0,0,0,0,0,0,0,0,0,0,0,0
750,207.9,79.65,60.85,55.4,188.8,57.5,-36.51,-120.5,229.8,244.7,261.9,248.7,-93.01,266.2,145.3,263.4,0,0,0,0,0,0,0,0,0,0,0,0,0,0,0,0
751,206,93.64,84.17,73.03,194.8,66.01,-25.48,-116.8,237.4,258.2,276.9,265.3,-75.15,286.2,162.3,283.3,0,0,0,0,0,0,0,0,0,0,0,0,0,0,0,0
752,216,117.8,108.4,91.26,214.6,86.43,-5.034,-111.5,249.3,265.5,260.7,261.3,-66.89,291.1,159.4,290.5,0,0,0,0,0,0,0,0,0,0,0,0,0,0,0,0
753,213.1,129.8,117.3,107.1,212.2,93.16,1.787,-100.4,236.3,260.7,238.5,247.5,-67.71,294.1,145.7,299.8,0,0,0,0,0,0,0,0,0,0,0,0,0,0,0,0
754,209.5,138.4,126.8,112.7,208.4,102,1.105,-98.85,233.4,261.1,238.4,253.8,-56.73,307.9,145.1,313.9,0,0,0,0,0,0,0,0,0,0,0,0,0,0,0,0
755,219.5,142.9,139.9,116.2,221.1,116.9,4.94,-108.7,241.8,255.4,225.5,245.9,-61.93,292.8,143.6,291,0,0,0,0,0,0,0,0,0,0,0,0,0,0,0,0
756,209,131,129.8,114.7,209.7,106.6,0.1913,-121.8,228.9,239.1,211.3,215.9,-85.79,267.4,136.1,257.5,0,0,0,0,0,0,0,0,0,0,0,0,0,0,0,0
757,186.5,126.7,120.4,112.8,197.9,89.34,-4.703,-123.3,219,242.9,224.9,209.6,-86.21,279.8,137.4,267.3,0,0,0,0,0,0,0,0,0,0,0,0,0,0,0,0
758,191,147.5,134.2,124.5,210.7,91.64,5.788,-105.8,223.9,258.6,229.8,220.4,-73.73,296,141.1,283.7,0,0,0,0,0,0,0,0,0,0,0,0,0,0,0,0
759,196,162.8,136.3,129.9,201.2,89.99,5.15,-98.66,216.6,253.7,221.3,224.9,-75.02,286.9,146.5,275.9,0,0,0,0,0,0,0,0,0,0,0,0,0,0,0,0
760,185.5,162.5,127.6,121.3,185.2,89.41,-8.483,-112.9,214.7,245.9,233.5,243.4,-71.25,283.3,167.2,286.6,0,0,0,0,0,0,0,0,0,0,0,0,0,0,0,0
761,193,170.6,141.8,132.7,203.5,112.6,6.129,-108.7,228.8,256,243.5,262,-59.39,294.7,188.4,321.4,0,0,0,0,0,0,0,0,0,0,0,0,0,0,0,0
762,211.1,185.7,167.2,165.2,218.6,132.2,38.79,-83,228.8,264.4,233.6,247.9,-60.38,301,188.5,334.1,0,0,0,0,0,0,0,0,0,0,0,0,0,0,0,0
763,210.6,192,172.1,175.8,205.1,126.3,47.6,-74,219.6,258.1,233.4,228.5,-68.79,293.6,179.2,319.1,0,0,0,0,0,0,0,0,0,0,0,0,0,0,0,0
764,208,195.4,157.9,159.5,191.8,121.4,46.6,-76.38,225,249.5,243.4,235.6,-65.22,286,182.7,311.1,0,0,0,0,0,0,0,0,0,0,0,0,0,0,0,0
765,227.2,211.2,162.1,159.6,201.7,141.7,66.05,-68.45,239.9,249.3,251.4,254.1,-50.17,290.4,197.6,319.4,0,0,0,0,0,0,0,0,0,0,0,0,0,0,0,0
766,247,230.3,184.6,174.2,214.7,163.9,87.1,-62.39,244.9,252.4,260.5,260.7,-42.09,289.2,205.2,320.8,0,0,0,0,0,0,0,0,0,0,0,0,0,0,0,0
767,242.2,231.1,182.4,171.2,209.1,165.7,89.45,-62.23,236,254.1,255.6,256.2,-44.12,280.3,205,308.4,0,0,0,0,0,0,0,0,0,0,0,0,0,0,0,0
768,236.4,231.1,172.4,174.5,209.8,172.2,96.08,-50.93,234.7,259.8,240,256.3,-40.04,290.9,209.2,298.7,0,0,0,0,0,0,0,0,0,0,0,0,0,0,0,0
769,244.3,251.9,184.2,192.9,217.6,189.1,120.1,-37.73,247.1,266.3,247.6,266,-26.22,312.3,220.1,305.8,0,0,0,0,0,0,0,0,0,0,0,0,0,0,0,0
770,252.5,270,193.5,196.7,210.3,195.3,138.9,-37.54,257,266.5,274.8,277.7,-12.71,319.1,241.4,321.4,0,0,0,0,0,0,0,0,0,0,0,0,0,0,0,0
771,266.5,270.4,202.7,203.3,214.3,199.8,141.3,-30.4,264.3,267.2,288.8,285.3,-8.267,316.5,262.9,319.2,0,0,0,0,0,0,0,0,0,0,0,0,0,0,0,0
772,268.4,268.8,213.9,214.9,224.4,199.1,141.2,-10.58,269.1,272.8,287.5,289.9,-9.016,318.1,264.9,306.9,0,0,0,0,0,0,0,0,0,0,0,0,0,0,0,0
773,244.2,269.4,204.7,203.9,210,183.3,143.5,-4.552,257.8,273.5,279.7,289,-5.627,321.9,251.3,310.3,0,0,0,0,0,0,0,0,0,0,0,0,0,0,0,0
774,231.4,261.4,200.8,197.6,199.4,176,136.4,-13.45,231.8,265.7,257.5,266.4,-7.284,314.2,226.3,303.6,0,0,0,0,0,0,0,0,0,0,0,0,0,0,0,0
775,228,246.3,215.6,212.7,204.5,178.9,126.2,-17.08,217.1,262.7,235.2,242.1,-13.62,297.4,204.6,279.2,0,0,0,0,0,0,0,0,0,0,0,0,0,0,0,0
776,215.9,240.3,219.9,219.4,207,174.7,130.4,-12.95,229.4,266,238,258.5,-8.221,288.9,214.6,280.2,0,0,0,0,0,0,0,0,0,0,0,0,0,0,0,0
777,218.9,244,214.6,213.4,210.8,169.6,133.9,-5.386,241.4,265.2,243.5,283,0.2715,287.9,230.4,295.2,0,0,0,0,0,0,0,0,0,0,0,0,0,0,0,0
778,227.7,251.9,213.4,215.5,212.6,169.1,129.5,8.995,233,266.7,233.1,277.8,5.833,287.3,222.9,290.4,0,0,0,0,0,0,0,0,0,0,0,0,0,0,0,0
779,224.3,266.4,217.2,231.5,213.6,174.2,137.3,24.64,232,269.6,238.7,279.5,16.1,286.9,225.7,281.1,0,0,0,0,0,0,0,0,0,0,0,0,0,0,0,0
780,228.9,273.5,221.2,239.4,223.9,186,143.6,27.81,249.9,265.6,262.6,296.7,22.02,286.5,243.3,278.3,0,0,0,0,0,0,0,0,0,0,0,0,0,0,0,0
781,241.4,271.8,216.2,226.6,230.5,195,133.2,27.92,259.7,267,270.3,298.8,23.38,291.2,242.9,280.7,0,0,0,0,0,0,0,0,0,0,0,0,0,0,0,0
782,243.3,276.5,206.9,214.1,225.4,193.3,126.1,37.71,255.1,269.7,269.6,290.1,26.1,297.5,230.1,286.1,0,0,0,0,0,0,0,0,0,0,0,0,0,0,0,0
783,236.1,276.6,200,205.1,221.6,187.2,121.6,39.16,257.8,266.3,282.6,285,26.09,299.7,220.8,281.9,0,0,0,0,0,0,0,0,0,0,0,0,0,0,0,0
784,231.2,273.7,196.4,189.6,222.7,181.9,106.2,28.01,261.7,269.3,280,278.9,26.99,301.1,212.4,272.5,0,0,0,0,0,0,0,0,0,0,0,0,0,0,0,0
785,221.9,275.3,194.6,181.1,215,167.7,88.1,23.21,245,263.1,249.5,260.2,22.27,291,200.6,263.2,0,0,0,0,0,0,0,0,0,0,0,0,0,0,0,0
786,204,260.7,190.6,185.1,202.8,153.4,76.19,26.41,230.8,243.2,234.6,237,6.593,270.4,186.2,250.4,0,0,0,0,0,0,0,0,0,0,0,0,0,0,0,0
787,197,239.7,192.9,190.2,202.2,154.6,75.16,38.54,231,243.5,237.9,227.7,0.8053,263.4,181.1,251.1,0,0,0,0,0,0,0,0,0,0,0,0,0,0,0,0
788,197.8,238.1,198.6,190.4,200,153.9,84.47,58.45,222,258.4,236.9,225.9,9.803,268.3,189.5,260.7,0,0,0,0,0,0,0,0,0,0,0,0,0,0,0,0
789,200.4,247.9,194.1,189,199.3,155.8,96.28,70.35,229.7,265.7,254.9,231,20.69,276.1,204.4,268.6,0,0,0,0,0,0,0,0,0,0,0,0,0,0,0,0
790,225.3,264,198.2,193.3,224.1,181.9,107.7,79.52,269.1,273.6,290.5,257.5,44.53,304,246.1,318.1,0,0,0,0,0,0,0,0,0,0,0,0,0,0,0,0
791,257.3,289.1,217.5,205.9,249.5,206.5,121.8,96.54,291.4,286,313.7,286.2,82.67,344.9,308.5,387.9,0,0,0,0,0,0,0,0,0,0,0,0,0,0,0,0
792,263.1,303.2,215,211.9,237.7,198.7,124.1,99.17,271.1,282.6,299.8,272.2,80.32,335.3,296.3,351.5,0,0,0,0,0,0,0,0,0,0,0,0,0,0,0,0
793,223.6,269.1,167.5,181,185.1,149.6,83.88,70.2,207.9,239.4,219.5,200.2,11.21,255.4,184.6,221.8,0,0,0,0,0,0,0,0,0,0,0,0,0,0,0,0
794,143.5,198.8,111.6,129.2,126.9,87.85,25.46,36.97,138.5,187.3,134.7,131.7,-44.28,194.4,107.1,163.8,0,0,0,0,0,0,0,0,0,0,0,0,0,0,0,0
795,99.07,170,104.4,115.9,117.1,77.65,11.62,34.53,127.4,179.8,129.5,127.3,-37.77,197.4,115.5,190.1,0,0,0,0,0,0,0,0,0,0,0,0,0,0,0,0
796,120,192.3,133.9,136,143.9,108.1,34.02,54.96,147.9,194.9,148.9,148.7,-26.67,204.9,123.4,197.2,0,0,0,0,0,0,0,0,0,0,0,0,0,0,0,0
797,136,207.5,152.9,149.9,160.6,120.4,49.79,73.29,146.5,200.5,150.7,158.6,-25.09,207.6,124.4,197.8,0,0,0,0,0,0,0,0,0,0,0,0,0,0,0,0
798,138.3,213.9,157.1,159.5,164.1,118,56.89,83.32,143,209,170.9,172.3,-11.99,222.6,149.4,213.4,0,0,0,0,0,0,0,0,0,0,0,0,0,0,0,0
799,147.2,216.7,149.6,164.6,154.2,113.8,58.7,85.81,146,208.5,183,178.6,-18.74,214.8,158.4,200.1,0,0,0,0,0,0,0,0,0,0,0,0,0,0,0,0
800,142.5,207.4,147.2,170.8,145.5,112.2,61.59,91.42,145.3,197.7,170.5,174.5,-38.47,199.7,151.3,183.2,0,0,0,0,0,0,0,0,0,0,0,0,0,0,0,0
801,141.1,210,170.4,186.1,164.3,127.4,71.45,105,152,203.4,175.7,179.2,-32.67,216.1,158,196.5,0,0,0,0,0,0,0,0,0,0,0,0,0,0,0,0
802,155.2,217.3,184.1,188,182.5,142,73.47,110.3,168.4,215,201.3,190.1,-18.55,235.8,168.4,209.8,0,0,0,0,0,0,0,0,0,0,0,0,0,0,0,0
803,165.8,213.1,174.3,180.6,178.8,143,70.62,109.4,179.4,215.8,215.3,204.1,-11.09,242.6,179.3,221.5,0,0,0,0,0,0,0,0,0,0,0,0,0,0,0,0
804,174.4,215.3,166.5,176.4,171.4,139.1,71.59,113.6,166.8,214.3,204.8,208.1,-1.048,250.3,187.2,241.7,0,0,0,0,0,0,0,0,0,0,0,0,0,0,0,0
805,177.9,219.1,158.8,163.2,166,127.4,69,118.7,150.8,212.7,195.2,195.6,1.217,251.2,178.8,248.1,0,0,0,0,0,0,0,0,0,0,0,0,0,0,0,0
806,171.8,218.1,157.6,157,164.9,116.6,71.35,128.2,162.9,208.6,205,196.1,-5.425,243.7,169,239,0,0,0,0,0,0,0,0,0,0,0,0,0,0,0,0
807,168.8,224.4,165.3,169.9,165.2,117,83.24,142.6,170.1,208.3,205.7,206.1,-3.439,236.9,167.5,232,0,0,0,0,0,0,0,0,0,0,0,0,0,0,0,0
808,173.4,234.4,163.1,182.1,163,120,93.36,153,153.5,215.4,193.7,200.4,5.284,229.5,165.7,228,0,0,0,0,0,0,0,0,0,0,0,0,0,0,0,0
809,179.2,243.7,162.6,186.6,169.5,124.2,100.5,158.5,154.9,220.7,198.7,203.4,9.031,225.6,170.4,226.4,0,0,0,0,0,0,0,0,0,0,0,0,0,0,0,0
810,184.6,249.7,172.1,184.7,184.1,136.8,104.5,162,176.7,219.6,218.5,232.2,14.28,232.7,188.5,239.3,0,0,0,0,0,0,0,0,0,0,0,0,0,0,0,0
811,201.4,248,179.9,183.5,195.9,152.2,106.7,172.3,183,219.6,235.7,250.6,23.21,242.9,204.9,259.8,0,0,0,0,0,0,0,0,0,0,0,0,0,0,0,0
812,216.5,245.5,182.5,187.2,199.6,155.5,114.4,188.4,178.3,218.5,240.5,242.3,21.88,242.8,202.4,254.8,0,0,0,0,0,0,0,0,0,0,0,0,0,0,0,0
813,205.6,242.7,180.3,189.6,198.8,154.4,125.3,196.7,185.4,216.7,234.3,235.3,11.24,230.8,189.7,226.9,0,0,0,0,0,0,0,0,0,0,0,0,0,0,0,0
814,194.9,235.4,185.1,195.4,202.6,161,128.3,197.4,189.5,219.5,226.5,233.5,0.2748,215.7,184.9,213.4,0,0,0,0,0,0,0,0,0,0,0,0,0,0,0,0
815,191.8,221.6,192,197,199.6,154.3,115.1,190.9,170.1,215.4,217,215.4,-11.14,206.2,182.9,215.2,0,0,0,0,0,0,0,0,0,0,0,0,0,0,0,0
816,171,202,184.4,185,181,135.1,97.53,181.6,150.8,205.8,208.8,192.6,-14.96,205.5,172.6,214.9,0,0,0,0,0,0,0,0,0,0,0,0,0,0,0,0
817,159.1,196.8,182.2,181,167.3,131.3,99.07,185.5,150.6,210.5,203.7,187.9,-4.68,213.3,166.3,221.3,0,0,0,0,0,0,0,0,0,0,0,0,0,0,0,0
818,170.6,212.6,188.9,185,165.8,130.2,111.4,191.1,149.4,223.5,195.3,199.4,6.095,223.9,172.7,230.6,0,0,0,0,0,0,0,0,0,0,0,0,0,0,0,0
819,171.5,220.5,181.5,176.7,164.7,119.1,111.4,187.1,138.7,228.7,188.5,208.9,3.199,223,171,223.7,0,0,0,0,0,0,0,0,0,0,0,0,0,0,0,0
820,163.4,213.8,175.4,170.1,164.3,120.2,106.9,188.7,138.2,228.1,189.3,202.9,-1.315,216.6,157.1,218.4,0,0,0,0,0,0,0,0,0,0,0,0,0,0,0,0
821,166.2,218.6,186.2,177.9,174.7,136,112,194.2,155.2,228.3,196.6,200.5,11,223.9,155.5,233.9,0,0,0,0,0,0,0,0,0,0,0,0,0,0,0,0
822,175.5,234.2,194.6,188,188,149,121.2,199.8,168.1,230.1,204.2,214.5,21.18,227.6,163.2,240,0,0,0,0,0,0,0,0,0,0,0,0,0,0,0,0
823,183.8,242.2,192.1,192.8,188,157.1,135.1,214.8,169.2,229.9,206.6,224.4,13.83,216.4,171.8,227.7,0,0,0,0,0,0,0,0,0,0,0,0,0,0,0,0
824,187.9,245.7,192.7,190.2,187.2,162.3,148,225.4,175.8,224.3,211.9,229.6,16.08,217.8,193.3,234.1,0,0,0,0,0,0,0,0,0,0,0,0,0,0,0,0
825,186.7,245.3,199.1,181.7,190.8,157,141,218.9,174.7,215.5,219.9,232.3,31.23,230.7,209.7,256.6,0,0,0,0,0,0,0,0,0,0,0,0,0,0,0,0
826,184.7,239,198.8,179.6,185,149.2,135.5,214.9,163.5,213,224.5,223.1,40.52,237.4,207.6,268.3,0,0,0,0,0,0,0,0,0,0,0,0,0,0,0,0
827,192.2,241.2,197.3,185.9,188,158.2,152.3,221.7,178.2,216.4,232.4,219.7,49.3,243.1,207.6,271.6,0,0,0,0,0,0,0,0,0,0,0,0,0,0,0,0
828,202.7,242,205,186.9,206,168.2,154.8,217.3,203,212.7,237.9,222.2,49.78,241,206.9,265.7,0,0,0,0,0,0,0,0,0,0,0,0,0,0,0,0
829,201.4,230.4,207.8,182.4,207.8,158.7,138.1,206.6,202.1,208.4,235.8,211.2,36.85,229.1,200.6,249.2,0,0,0,0,0,0,0,0,0,0,0,0,0,0,0,0
830,198.3,232.6,202.8,181.1,197.9,149.8,140.3,218.3,192.9,215.7,230.4,199.4,32.83,221,197.9,231,0,0,0,0,0,0,0,0,0,0,0,0,0,0,0,0
831,199.8,248.1,205.2,185.4,200.2,155.5,153.7,238.7,188.9,225.1,222,196.9,37.05,216.9,188.1,217.7,0,0,0,0,0,0,0,0,0,0,0,0,0,0,0,0
832,197.4,254.9,209,195.5,202.8,163.2,161.9,243.1,185.4,232.7,229.6,201.2,40.77,223,180.3,223,0,0,0,0,0,0,0,0,0,0,0,0,0,0,0,0
833,199.2,258.8,204.3,199,193.9,165.7,168.2,243.5,184.5,241.5,254.4,208.1,49.05,236.4,188.5,236.4,0,0,0,0,0,0,0,0,0,0,0,0,0,0,0,0
834,205.8,260.3,201,192.5,187.8,164.1,166,245.4,183.7,244.8,265,205.7,54.53,237.7,194.8,237.5,0,0,0,0,0,0,0,0,0,0,0,0,0,0,0,0
835,204,253.9,200.9,187.3,189.8,159.1,161.5,237.3,186.2,239.8,263.9,207.3,55.81,233.8,201.7,244.5,0,0,0,0,0,0,0,0,0,0,0,0,0,0,0,0
836,194.5,242.5,194.5,176.3,184.7,149.1,158.8,222.5,189.9,228.3,261.6,216.5,54.52,228.3,207.2,249.8,0,0,0,0,0,0,0,0,0,0,0,0,0,0,0,0
837,179.6,225.4,191.4,169.4,176.9,142.5,151.4,217.1,183.2,219.4,248.2,206.2,42.73,212.4,184.7,226.2,0,0,0,0,0,0,0,0,0,0,0,0,0,0,0,0
838,166.4,216.9,196.7,184,181.6,147.2,150.8,223.2,175.2,219.7,231.8,190.8,33.3,201.9,156.6,204.7,0,0,0,0,0,0,0,0,0,0,0,0,0,0,0,0
839,165.6,221.9,194,190.2,183.5,151.5,155.3,225.6,175,216.9,220.9,193.7,33.42,195.8,152.9,200.9,0,0,0,0,0,0,0,0,0,0,0,0,0,0,0,0
840,167.9,215,187.1,179.8,174.5,147.3,150.3,224.8,178,211.3,220.2,202,30.11,182.4,165.2,200.5,0,0,0,0,0,0,0,0,0,0,0,0,0,0,0,0
841,167,197.2,185.8,177.4,172.1,141.3,144.3,226.9,185.9,214.4,238,215.6,37.5,186.7,194.5,225.6,0,0,0,0,0,0,0,0,0,0,0,0,0,0,0,0
842,173.9,195.9,180.9,175.1,174.5,138.5,141.9,219.6,190,216.4,248.1,224.3,58.14,205.8,218.1,255.9,0,0,0,0,0,0,0,0,0,0,0,0,0,0,0,0
843,177.2,203.8,177.4,170.1,167.3,138.7,139.7,211.5,174.2,210.1,228.2,202.2,56.69,197.8,198.3,238.7,0,0,0,0,0,0,0,0,0,0,0,0,0,0,0,0
844,159.6,194.9,178.5,168.4,157,136.4,136.8,213.2,158,200.2,210,177.2,40.37,174.4,167.4,209.3,0,0,0,0,0,0,0,0,0,0,0,0,0,0,0,0
845,149.3,177.5,174.3,161.9,160.5,134.9,128.7,210.2,161.7,186.5,209.6,174.7,37.21,166.1,156.6,202.3,0,0,0,0,0,0,0,0,0,0,0,0,0,0,0,0
846,162.7,173.8,170.7,161.6,167.5,139.9,124.4,209.8,160.6,178.7,201,167,30.31,158.8,141.8,186.2,0,0,0,0,0,0,0,0,0,0,0,0,0,0,0,0
847,164.5,179.7,170,172.7,160.4,141,132.4,220,150.9,184.6,187.7,153.8,19.05,151.4,133.8,175.8,0,0,0,0,0,0,0,0,0,0,0,0,0,0,0,0
848,154.2,185.3,165.6,176.2,156.9,136.7,137.7,217.5,157.5,188.2,188.3,155.5,22.14,157.5,150,193.6,0,0,0,0,0,0,0,0,0,0,0,0,0,0,0,0
849,157.9,185.1,159,165.7,158.1,132.3,133.3,204.3,159.6,183.5,189,161.7,25.07,164.5,162.4,199.9,0,0,0,0,0,0,0,0,0,0,0,0,0,0,0,0
850,161.4,177.8,150.6,155,140.5,124.9,131,204.2,146.4,189,194.8,169.1,29.25,173.2,172,197.8,0,0,0,0,0,0,0,0,0,0,0,0,0,0,0,0
851,162.4,181.4,144.8,156.3,125.6,121.5,133.3,215,153.5,201.3,216.6,177,47.68,187.3,191.8,215.1,0,0,0,0,0,0,0,0,0,0,0,0,0,0,0,0
852,168.5,192.6,148.6,161.5,137.5,129.9,135.7,217.2,173.5,198.6,221.7,173.1,57.71,184.1,194,214.9,0,0,0,0,0,0,0,0,0,0,0,0,0,0,0,0
853,165.2,188.6,164.7,168.5,158.4,146.8,143.4,212.6,175.6,190.5,207.2,174.1,54.09,168.9,177.9,191.1,0,0,0,0,0,0,0,0,0,0,0,0,0,0,0,0
854,161,183.6,183.8,184.2,168.3,160.7,151.6,220,170.2,189.3,204.2,187.9,56.5,163.3,175.8,188.1,0,0,0,0,0,0,0,0,0,0,0,0,0,0,0,0
855,166.1,192.5,182.3,186.1,159.7,158.4,149.6,227.6,168.6,184,201,194.7,59.32,159.3,183.2,193.3,0,0,0,0,0,0,0,0,0,0,0,0,0,0,0,0
856,168.4,196.9,167.3,170.7,147.3,149.2,146.5,214.6,162,180.1,191.6,199.3,51.21,150.3,180.4,180.9,0,0,0,0,0,0,0,0,0,0,0,0,0,0,0,0
857,170.6,185,162.4,162.7,145.3,146.3,142.8,197.9,150.7,179.5,193.9,201.2,39.69,146.3,175.7,176.9,0,0,0,0,0,0,0,0,0,0,0,0,0,0,0,0
858,170.5,167.3,154.6,149.9,136.2,141.3,124.9,185.9,144.9,167,195.4,187.1,35.77,150.6,175.7,189.3,0,0,0,0,0,0,0,0,0,0,0,0,0,0,0,0
859,158.2,158.7,142.9,130.8,123.5,131.5,107.2,169.2,143.9,153.7,190.2,172.9,37.29,154.1,169.4,192.2,0,0,0,0,0,0,0,0,0,0,0,0,0,0,0,0
860,146.6,158.8,145,132.8,127.8,123.8,105,158.9,141.8,151.6,196,171,38.93,147.8,165.9,187.2,0,0,0,0,0,0,0,0,0,0,0,0,0,0,0,0
861,150.2,157,147.9,144.7,134.2,123.5,106.4,160.9,144.4,147.2,210.8,176.7,46.4,140.8,181.9,192.5,0,0,0,0,0,0,0,0,0,0,0,0,0,0,0,0
862,161.6,156.2,140.9,144.4,130.6,128.9,104.3,166.7,150.6,141.8,218.5,187.2,53.1,142.8,196.9,202.8,0,0,0,0,0,0,0,0,0,0,0,0,0,0,0,0
