%OpenBCI Raw EXG Data
%Number of channels = 16
%Sample Rate = 125 Hz
%Board = OpenBCI_GUI$BoardCytonSerialDaisy
Sample Index,EXG Channel 0,EXG Channel 1,EXG Channel 2,EXG Channel 3,EXG Channel 4,EXG Channel 5,EXG Channel 6,EXG Channel 7,EXG Channel 8,EXG Channel 9,EXG Channel 10,EXG Channel 11,EXG Channel 12,EXG Channel 13,EXG Channel 14,EXG Channel 15,Accel Channel 0,Accel Channel 1,Accel Channel 2,Other,Other,Other,Other,Other,Other,Other,Analog Channel 0,Analog Channel 1,Analog Channel 2,Timestamp,Other,Timestamp (Formatted),Annotations
1,0,-0,0,-0,0,0,0,0,0,-0,-0,0,-0,-0,0,-0,0,0,0,0,0,0,0,0,0,0,0,0,0,0,0,0,T0
2,15.49,4.583,-11.36,13.6,6.404,3.988,13.02,3.723,-46.68,-27.03,1.783,15.88,5.898,7.293,5.554,-2.126,0,0,0,0,0,0,0,0,0,0,0,0,0,0,0,0,
3,31.24,11.81,-28.25,-42.21,17.28,26.76,32.8,16.67,9.531,4.318,22.06,45.49,23.17,16.66,24.19,8.613,0,0,0,0,0,0,0,0,0,0,0,0,0,0,0,0,
4,52.22,39.9,-48.31,-22.49,26.72,59.73,46,24.54,52.04,23.88,40.24,62.44,34.29,17.69,40.97,17.18,0,0,0,0,0,0,0,0,0,0,0,0,0,0,0,0,
5,59.66,67.27,-54,38.3,11.09,47.65,51.85,29.55,25.51,10.52,47.96,66.55,40.88,22.39,55.69,23.73,0,0,0,0,0,0,0,0,0,0,0,0,0,0,0,0,
6,50.99,78.52,-64.02,11.91,0.0823,9.061,49.81,29.75,13.03,15.5,51.93,76.56,50.76,35.59,66.77,30.8,0,0,0,0,0,0,0,0,0,0,0,0,0,0,0,0,
7,41.34,81.83,-81.53,-25.31,16.3,0.2272,32.26,13.45,5.093,23.75,51.55,80.39,57.99,39.63,65.33,36.8,0,0,0,0,0,0,0,0,0,0,0,0,0,0,0,0,
8,27.89,70.63,-70.61,-25.1,5.851,-1.692,6.852,-5.148,-23.14,13.7,55.08,69.47,65.77,38.91,65.41,48.21,0,0,0,0,0,0,0,0,0,0,0,0,0,0,0,0,
9,18.34,63.47,-59.46,-21.33,-26.64,-11.08,-20.01,-19.99,-22.16,16.08,63.49,56.04,68.56,42.24,66.58,51.42,0,0,0,0,0,0,0,0,0,0,0,0,0,0,0,0,
10,13.65,72.42,-69.61,-18.75,-21.73,-12.25,-32.74,-36.09,-10.21,31.1,67.06,43.78,62.54,45.45,55.4,41.71,0,0,0,0,0,0,0,0,0,0,0,0,0,0,0,0,
11,0.72,68.89,-64.41,-63.4,-2.787,-7.87,-18.11,-39.27,-20.93,26.13,60.81,23.78,58.06,49.72,40.05,34,0,0,0,0,0,0,0,0,0,0,0,0,0,0,0,0,
12,-5.786,52.59,-72.38,-114.4,-14.61,-1.918,-16.12,-36.01,-17.14,5.711,39.35,-3.853,44.24,45.68,22.64,20.61,0,0,0,0,0,0,0,0,0,0,0,0,0,0,0,0,
13,-6.931,34.9,-108.7,-76.3,-32.41,-18.12,-40.15,-42.54,-0.5669,-3.276,22.56,-19.56,19.73,28.02,5.565,1.389,0,0,0,0,0,0,0,0,0,0,0,0,0,0,0,0,
14,-22.43,14.7,-110.5,-30.09,-29.23,-55.11,-44.45,-38.68,-17.07,-6.477,26.65,-21.23,0.8704,9.175,-3.209,-12.1,0,0,0,0,0,0,0,0,0,0,0,0,0,0,0,0,
15,-40.66,4.682,-95.02,-38.55,-34.87,-71.47,-40.31,-24.13,-58.89,-18.66,22.65,-31.38,-20.37,-9.979,-9.315,-21.77,0,0,0,0,0,0,0,0,0,0,0,0,0,0,0,0,
16,-46.96,-3.528,-96.66,-34.38,-51.13,-60.68,-47.2,-28.79,-61.07,-28.04,22.5,-39.67,-33.37,-22.75,2.812,-19.04,0,0,0,0,0,0,0,0,0,0,0,0,0,0,0,0,
17,-27.57,-18.79,-61.69,-16.42,-19.66,-25.28,-31.16,-38.74,0.4923,-32.94,57.82,-25.47,-25.56,-23.7,33.86,-11.56,0,0,0,0,0,0,0,0,0,0,0,0,0,0,0,0,
18,9.44,-23.72,-10.02,5.238,36.18,15.6,-11.23,-26.93,56.25,-37.59,88.45,1.544,-21.94,-27.63,48.66,-6.835,0,0,0,0,0,0,0,0,0,0,0,0,0,0,0,0,
19,27.08,-15.41,-2.28,36.17,50.34,29.14,-5.403,-1.032,74.17,-21.73,117,51.1,-2.52,-13.54,76.62,32.23,0,0,0,0,0,0,0,0,0,0,0,0,0,0,0,0,
20,53.3,11.04,7.491,21.3,65.75,45.69,24.71,20.79,95.17,-5.798,172.1,104.2,38.41,21.88,129.3,77.52,0,0,0,0,0,0,0,0,0,0,0,0,0,0,0,0,
21,93.95,34.98,17.14,-23.52,88.14,49.13,38.32,8.236,83.71,-38.61,161.9,77.68,20.47,7.619,107.5,44.74,0,0,0,0,0,0,0,0,0,0,0,0,0,0,0,0,
22,58.35,6.726,-35.44,-37.14,37.91,-14.88,-12.72,-36.75,3.723,-81.17,57.05,-7.497,-44.24,-47.19,11.24,-30.99,0,0,0,0,0,0,0,0,0,0,0,0,0,0,0,0,
23,-22.84,-30.43,-82.78,-41.76,-33.87,-66.1,-60.11,-56.16,-52.18,-73.78,-9.657,-42.24,-59.87,-56.81,-38.17,-61.17,0,0,0,0,0,0,0,0,0,0,0,0,0,0,0,0,
24,-33.27,-13.97,-68.43,-44.84,-31.64,-58.5,-62.86,-48.31,-36.38,-52.29,2.424,-32.3,-40.77,-38.16,-33.17,-52.81,0,0,0,0,0,0,0,0,0,0,0,0,0,0,0,0,
25,-11.69,10.14,-59.56,-33.07,-1.683,-67.23,-52.86,-54.05,-11.84,-47.33,15.47,-25.37,-27.63,-32.95,-30.6,-41.35,0,0,0,0,0,0,0,0,0,0,0,0,0,0,0,0,
26,-22.23,18.84,-66.07,-33.65,4.1,-64.18,-33.63,-53.16,13.98,-30.09,16.27,-3.627,-2.98,-16.97,-20.65,-29.26,0,0,0,0,0,0,0,0,0,0,0,0,0,0,0,0,
27,-27.13,37.35,-64.53,-37.55,6.32,-15.02,-16.58,-42.82,37.16,-18.7,27.83,14.46,7.284,-8.922,-7.87,-22.04,0,0,0,0,0,0,0,0,0,0,0,0,0,0,0,0,
28,-26.16,28.24,-75.85,-40.19,-0.3252,-14.23,-38.27,-58.85,-8.379,-43.05,30.98,0.909,-18.11,-30.84,-15.55,-24.7,0,0,0,0,0,0,0,0,0,0,0,0,0,0,0,0,
29,-45.03,-7.856,-71.03,-71.89,-12.15,-61.42,-67.35,-67.83,-64.7,-54.4,18.92,-5.298,-26.51,-32.48,-16.92,-23.11,0,0,0,0,0,0,0,0,0,0,0,0,0,0,0,0,
30,-49.91,-1.065,-52.11,-86.02,4.047,-63.69,-45.09,-40.36,-26.13,-36.35,22.48,7.977,-7.404,-9.095,6.728,-11.25,0,0,0,0,0,0,0,0,0,0,0,0,0,0,0,0,
31,-34.04,19.68,-76.55,-52.88,13.42,-42.61,-15.72,-37.07,16.77,-51.38,33.05,3.394,-14.47,-13.14,21.98,-11.82,0,0,0,0,0,0,0,0,0,0,0,0,0,0,0,0,
32,-35.18,-11.64,-93.24,-33.18,-10.19,-40.38,-37.43,-67.07,-15.24,-87.64,12.81,-15.96,-41.66,-36.17,11.18,-27.39,0,0,0,0,0,0,0,0,0,0,0,0,0,0,0,0,
33,-34.43,-38.66,-53.98,-8.591,-3.146,-26.93,-50.54,-53.91,-23.44,-81.76,-5.377,-14.07,-41.29,-40.18,5.446,-27.07,0,0,0,0,0,0,0,0,0,0,0,0,0,0,0,0,
34,-1.354,-13.86,-27.81,38.2,29,-8.544,-18.42,-18.45,14.47,-65.93,15.28,8.158,-26.86,-31.75,17.73,-17.56,0,0,0,0,0,0,0,0,0,0,0,0,0,0,0,0,
35,24.66,5.545,-23.79,30.5,28.84,-6.286,0.8745,-33.31,21.2,-79.18,28.56,17.14,-26.75,-29.34,17.5,-23.23,0,0,0,0,0,0,0,0,0,0,0,0,0,0,0,0,
36,24.24,3.169,6.326,15.7,37.05,0.5252,1.65,-46.59,11.06,-80.73,15.03,10.72,-22.92,-30.95,0.5932,-23.28,0,0,0,0,0,0,0,0,0,0,0,0,0,0,0,0,
37,31.54,12.65,26.32,44.8,61.04,5.629,11.25,-26.31,14.85,-65.95,8.404,11.59,-14.09,-30.02,-5.108,-11.47,0,0,0,0,0,0,0,0,0,0,0,0,0,0,0,0,
38,38.5,19.29,-8.787,12.38,42.8,-7.214,7.119,-43.19,0.1785,-68.23,5.649,10.1,-23.5,-31.33,-3.108,-17.26,0,0,0,0,0,0,0,0,0,0,0,0,0,0,0,0,
39,20.34,12.44,-62.82,-32.12,15.49,-19.95,-12.34,-70.3,-20.12,-70.75,0.127,-4.673,-35.41,-39.09,-8.296,-33.95,0,0,0,0,0,0,0,0,0,0,0,0,0,0,0,0,
40,-1.508,13.86,-77,5.117,9.827,-34.52,-20.72,-49.86,-4.067,-68.1,-3.498,-21.9,-33.19,-42.29,-14.22,-38.08,0,0,0,0,0,0,0,0,0,0,0,0,0,0,0,0,
41,-19.05,15.72,-48.92,-12.87,-9.015,-65.43,-26.89,-43.48,-2.001,-84.87,-27.44,-52.95,-40.47,-38.58,-25.24,-39.66,0,0,0,0,0,0,0,0,0,0,0,0,0,0,0,0,
42,-47.67,0.2023,-27.83,-71.42,-19.79,-92.5,-43.03,-69.67,-54.35,-91.79,-59.18,-89.81,-56.01,-39.54,-38.68,-46.57,0,0,0,0,0,0,0,0,0,0,0,0,0,0,0,0,
43,-64.21,-15.95,-34.97,-19.55,-5.181,-95.79,-47.69,-77.13,-81.79,-68.94,-62.49,-92.17,-54.77,-43,-35.01,-50.83,0,0,0,0,0,0,0,0,0,0,0,0,0,0,0,0,
44,-52.21,-17.85,-49.1,13.79,-11.15,-88.4,-43.84,-75.59,-54.87,-62.79,-61.05,-76.1,-52.31,-44.14,-32.21,-53.67,0,0,0,0,0,0,0,0,0,0,0,0,0,0,0,0,
45,-41.84,-17.8,-57.8,-45.53,-28.44,-81.53,-59.39,-74.04,-31.66,-71,-65.54,-65.13,-53.51,-37.85,-37.7,-41.87,0,0,0,0,0,0,0,0,0,0,0,0,0,0,0,0,
46,-29.77,-13.13,-60.25,-29.86,-12.54,-67.32,-59.83,-63.62,-19.22,-61.12,-43.22,-33.23,-31.06,-14.74,-14.99,-0.4967,0,0,0,0,0,0,0,0,0,0,0,0,0,0,0,0,
47,2.708,5.522,-60.25,29.92,7.05,-53.16,-23.19,-67.12,-10.46,-62.24,-16.76,-1.477,-7.877,1.699,15.41,34.66,0,0,0,0,0,0,0,0,0,0,0,0,0,0,0,0,
48,16.99,10.68,-57.73,3.549,-2.331,-49.26,-20.51,-73.91,-1.308,-74.24,-15.58,-7.788,-16.98,-12.53,11.3,32.32,0,0,0,0,0,0,0,0,0,0,0,0,0,0,0,0,
49,1.372,-8.61,-45.33,-32.72,-9.819,-54.04,-59.99,-65.31,6.312,-77.58,-21.6,-25.96,-36.06,-32.33,-0.7127,17.47,0,0,0,0,0,0,0,0,0,0,0,0,0,0,0,0,
50,-5.692,-17.29,-48.41,-25.47,-2.679,-79.14,-71.3,-66.58,-29.21,-97.87,-39.35,-40.45,-43.04,-36.93,-3.593,11.38,0,0,0,0,0,0,0,0,0,0,0,0,0,0,0,0,
51,-1.653,-1.585,-73.69,-38.39,2.345,-98.35,-54.97,-72.47,-61.35,-99.52,-59.11,-49.45,-32.41,-31.59,-8.015,12.88,0,0,0,0,0,0,0,0,0,0,0,0,0,0,0,0,
52,6.044,18.55,-68.05,-51.37,3.233,-69.66,-38.48,-67.18,-29.26,-58.25,-45.23,-32.41,-12.33,-23.05,-3.117,15.94,0,0,0,0,0,0,0,0,0,0,0,0,0,0,0,0,
53,21.26,26.07,-45.98,-22.65,-5.092,-38.57,-24.44,-67.28,-1.668,-51.76,-22.92,-10.62,-8.067,-23.71,5.674,8.562,0,0,0,0,0,0,0,0,0,0,0,0,0,0,0,0,
54,31.93,23.68,-61.71,-12.55,-9.452,-44.98,-25.62,-58.81,-1.161,-69.98,-21.24,-12.07,-11.26,-29.95,6.062,-1.266,0,0,0,0,0,0,0,0,0,0,0,0,0,0,0,0,
55,33.89,24.13,-64.61,-37.84,9.496,-55.88,-37.87,-41.83,-11.66,-53.42,-21.33,-17.78,-4.797,-27.11,7.024,-0.3643,0,0,0,0,0,0,0,0,0,0,0,0,0,0,0,0,
56,36.72,24.92,-29.52,-25.54,24.33,-53.67,-46.16,-53.2,-36.56,-51.29,-16.66,-9.32,2.392,-16.43,12.89,10.45,0,0,0,0,0,0,0,0,0,0,0,0,0,0,0,0,
57,54.46,29.2,-26.89,18.12,20.73,-35.35,-43,-67.18,-0.3434,-64.16,-13.45,11.25,15.74,0.0322,22.8,34.24,0,0,0,0,0,0,0,0,0,0,0,0,0,0,0,0,
58,79.64,45.44,-40.09,35.99,20.69,-16.57,-24.66,-58.31,60.35,-38.81,-15.22,25.01,27.88,9.034,31.08,50.01,0,0,0,0,0,0,0,0,0,0,0,0,0,0,0,0,
59,80.87,56.53,-8.706,30.63,28.61,-17.87,-13.48,-61.6,44.03,-27.38,-18.44,19.01,21.92,1.411,38.64,42.55,0,0,0,0,0,0,0,0,0,0,0,0,0,0,0,0,
60,73.7,62.63,12.38,3.036,36.01,-2.885,-19.78,-72.38,29.83,-59.31,-16.59,13.87,20.95,1.367,54.17,42.71,0,0,0,0,0,0,0,0,0,0,0,0,0,0,0,0,
61,82.36,76.03,-17.77,-23.3,32,25.96,-16.12,-69.61,36.15,-69.87,-25.23,17.13,28.69,8.868,59.05,46.46,0,0,0,0,0,0,0,0,0,0,0,0,0,0,0,0,
62,80.83,76.91,-22.55,3.808,24.48,20.5,0.9744,-70.58,9.775,-50.76,-33.56,18.65,26.68,6.829,52.66,38.13,0,0,0,0,0,0,0,0,0,0,0,0,0,0,0,0,
63,76.27,69.28,16.97,38.25,30.59,3.982,8.282,-76.39,7.7,-42.22,-15.01,29.2,33.39,12.6,66.51,49.34,0,0,0,0,0,0,0,0,0,0,0,0,0,0,0,0,
64,93.01,78.71,17.91,37.74,26.78,2.053,11.67,-73.21,4.518,-41.96,-1.829,48.11,52.64,24.59,82.62,63.78,0,0,0,0,0,0,0,0,0,0,0,0,0,0,0,0,
65,105.1,96.24,-9.807,53.01,5.465,4.072,31.53,-58.07,-20.92,-29.27,-8.459,59.78,65.15,28.9,79.21,53.16,0,0,0,0,0,0,0,0,0,0,0,0,0,0,0,0,
66,107.4,116.6,-4.281,64.77,-5.304,14.79,50.27,-44.49,4.298,-2.555,-1.412,63.06,78.42,41.39,84.33,57.49,0,0,0,0,0,0,0,0,0,0,0,0,0,0,0,0,
67,120.8,139.7,-9.95,37.7,-7.179,15.98,43.55,-47.73,19.5,12.45,11.9,57.22,91.24,49.73,93.46,70.39,0,0,0,0,0,0,0,0,0,0,0,0,0,0,0,0,
68,126.5,143.4,-38.92,28.72,-7.065,-6.565,30.81,-51.3,-4.215,3.791,16.54,49.67,92.59,40.69,86.31,57.3,0,0,0,0,0,0,0,0,0,0,0,0,0,0,0,0,
69,108.4,129.8,-27.52,43.99,-3.554,-23.27,25.5,-51.71,13.41,7.212,20.34,51.76,94.71,50.34,84.22,50.55,0,0,0,0,0,0,0,0,0,0,0,0,0,0,0,0,
70,90.03,114.1,-10.14,41.9,-0.1144,-28.12,7.306,-68.3,20.41,15.07,13.05,43.2,89.6,71.03,81.8,48.73,0,0,0,0,0,0,0,0,0,0,0,0,0,0,0,0,
71,77.21,89.01,-37.82,31.52,-0.6384,-41.09,-22.1,-93.76,-12.04,-14.24,-1.426,14.57,65.35,64.06,60.41,27.22,0,0,0,0,0,0,0,0,0,0,0,0,0,0,0,0,
72,58.21,72.49,-71.48,25.88,-24.59,-53.57,-33.82,-116.4,-4.131,-26.76,-1.445,8.445,58.22,57.87,55.47,25.79,0,0,0,0,0,0,0,0,0,0,0,0,0,0,0,0,
73,49.77,83.12,-82,21.86,-46.39,-52.47,-27.44,-117.2,11.68,7.384,3.143,34.9,68.04,66.14,68.35,37.04,0,0,0,0,0,0,0,0,0,0,0,0,0,0,0,0,
74,51.79,80.6,-68.17,4.606,-20.31,-51.99,-37.31,-94.61,-19.66,6.461,-9.326,34.17,42.36,48.8,46.44,7.735,0,0,0,0,0,0,0,0,0,0,0,0,0,0,0,0,
75,39.58,51.41,-55.46,-16,2.739,-50.19,-62.76,-97.64,-43.35,-25.09,-34.16,-6.623,1.082,20.29,5.8,-30.92,0,0,0,0,0,0,0,0,0,0,0,0,0,0,0,0,
76,23.25,33.47,-84.37,-11.44,-15.48,-37.62,-73.44,-115.4,-23.76,-28.3,-49.3,-30.3,-9.204,14.04,-8.481,-40.83,0,0,0,0,0,0,0,0,0,0,0,0,0,0,0,0,
77,7.795,12.93,-111.4,-25.83,-26.56,-50.27,-89.34,-103.9,-4.639,-37.15,-46.66,-30.12,-15.49,7.572,-11.8,-46.31,0,0,0,0,0,0,0,0,0,0,0,0,0,0,0,0,
78,-11.53,-24.59,-88.81,-52.55,-21.1,-89.73,-113.1,-98,-21.45,-52.73,-35.92,-39.33,-31.86,-7.385,-12.65,-51.87,0,0,0,0,0,0,0,0,0,0,0,0,0,0,0,0,
79,-7.467,-36.94,-75.89,-18.2,-11.48,-95.88,-95.45,-110.1,-35.16,-41.12,-23.91,-48.47,-30.19,-11.26,-0.3254,-47.02,0,0,0,0,0,0,0,0,0,0,0,0,0,0,0,0,
80,12.61,-27.96,-107.1,2.472,8.509,-66.02,-67.06,-108.3,-12.99,-35.58,-15.4,-46.62,-15.83,-6.144,10.91,-40.76,0,0,0,0,0,0,0,0,0,0,0,0,0,0,0,0,
81,23.84,-27.2,-118.8,-29.53,16.27,-41.45,-78.44,-102.8,-8.007,-43.6,-7.152,-41.79,-8.145,0.5237,15.95,-36.5,0,0,0,0,0,0,0,0,0,0,0,0,0,0,0,0,
82,39.75,-22.56,-84.84,-13.4,12.09,-37.99,-84.39,-109.2,-37.46,-47.07,7.761,-32.23,-9.28,3.144,14.84,-39.02,0,0,0,0,0,0,0,0,0,0,0,0,0,0,0,0,
83,45.56,-24.07,-68.9,3.248,18.56,-55.64,-70.97,-124.6,-38.07,-60.59,7.228,-34.95,-16.3,-0.2809,1.627,-45.59,0,0,0,0,0,0,0,0,0,0,0,0,0,0,0,0,
84,23.9,-42.53,-87.84,-40.5,17.84,-72.23,-82.6,-131.1,-13.77,-67.33,-15.62,-58.52,-19.76,1.961,-6.795,-40.44,0,0,0,0,0,0,0,0,0,0,0,0,0,0,0,0,
85,3.175,-46.28,-82.96,-42.5,9.147,-74.35,-104.5,-114.9,-18.52,-54.7,-23.24,-68.76,-16.56,8.23,-5.492,-35.01,0,0,0,0,0,0,0,0,0,0,0,0,0,0,0,0,
86,-4.879,-31.99,-66.85,2.658,15.61,-69.79,-102.4,-99.43,-33.89,-54.89,-17.77,-63.1,-13.81,9.384,-9.718,-39.84,0,0,0,0,0,0,0,0,0,0,0,0,0,0,0,0,
87,-3.7,-24.18,-81.85,-8.922,17.86,-60.31,-92.88,-98.76,-33.84,-66.13,-27.43,-72.37,-15.65,7.49,-11.42,-38.15,0,0,0,0,0,0,0,0,0,0,0,0,0,0,0,0,
88,0.3434,-27.49,-95.58,-65.29,2.284,-67.98,-99.57,-107.7,-44.31,-67.22,-33.77,-91.24,-24.14,-1.468,-3.153,-36.51,0,0,0,0,0,0,0,0,0,0,0,0,0,0,0,0,
89,-10.19,-41.09,-109.5,-67.45,-9.923,-91.14,-110.7,-120,-57.73,-72.1,-26.35,-101,-31.99,-9.861,9.391,-41.35,0,0,0,0,0,0,0,0,0,0,0,0,0,0,0,0,
90,-19.14,-57.08,-144,-36.8,-19.51,-89.66,-105.5,-120.6,-42.58,-88.44,-17.2,-97.41,-28.8,-2.733,28.45,-29.86,0,0,0,0,0,0,0,0,0,0,0,0,0,0,0,0,
91,-11.35,-64.78,-155.8,-80.7,-33.17,-84.25,-100.2,-136.9,-28.98,-100.1,-4.165,-88.58,-26.62,1.071,42.25,-14.06,0,0,0,0,0,0,0,0,0,0,0,0,0,0,0,0,
92,-9.999,-76.67,-154.8,-122.8,-41.74,-101.4,-115,-169.3,-45.8,-102.4,-0.9444,-92.55,-38.12,-7.316,41.99,-17.5,0,0,0,0,0,0,0,0,0,0,0,0,0,0,0,0,
93,-12.21,-96.78,-162.3,-50.34,-40.78,-103.8,-125.9,-144.8,-57.48,-103.6,-6.705,-95.77,-44.64,-3.696,50.34,-17,0,0,0,0,0,0,0,0,0,0,0,0,0,0,0,0,
94,-2.49,-101.9,-121.4,16.8,-22.57,-90.24,-111.7,-88.08,-49.33,-105.5,0.7797,-81.71,-34.6,5.517,66.27,-5.64,0,0,0,0,0,0,0,0,0,0,0,0,0,0,0,0,
95,-3.442,-91.74,-79.69,-16.9,-8.27,-92.16,-94.08,-79.36,-47.04,-103.8,0.162,-77.57,-24.91,7.6,66.77,-2.789,0,0,0,0,0,0,0,0,0,0,0,0,0,0,0,0,
96,-24.75,-82.49,-125.5,-67.27,-24.77,-102.6,-98.01,-88.56,-64.71,-98.72,-15.05,-88.03,-18.79,19.58,66.57,0.2706,0,0,0,0,0,0,0,0,0,0,0,0,0,0,0,0,
97,-42.55,-66.18,-149.6,-65.31,-30.3,-115.2,-116.5,-81.27,-103.7,-95.26,-14.27,-89.82,-9.874,33.47,76.71,9.174,0,0,0,0,0,0,0,0,0,0,0,0,0,0,0,0,
98,-45.09,-46.78,-91.12,-29.65,-21.44,-130.1,-126.7,-80.98,-112,-90.33,-5.475,-80.96,4.428,42.5,83.66,19.91,0,0,0,0,0,0,0,0,0,0,0,0,0,0,0,0,
99,-34.34,-33.45,-86.71,0.0556,-44.73,-120.2,-115.4,-80.63,-55.55,-72.83,2.914,-61.29,33.72,65.32,92.57,34.42,0,0,0,0,0,0,0,0,0,0,0,0,0,0,0,0,
100,-17.31,-9.581,-110.2,26.7,-43.48,-76.66,-83.1,-63.12,-28.35,-51.69,10.56,-50.99,52.95,76.15,91.99,27.97,0,0,0,0,0,0,0,0,0,0,0,0,0,0,0,0,
101,-6.919,9.25,-24.81,53.25,14.15,-28.82,-42.85,-39.98,-51.06,-42.85,-2.387,-67.47,37.22,62.23,66.63,-1.893,0,0,0,0,0,0,0,0,0,0,0,0,0,0,0,0,
102,1.242,6.202,93.47,92.72,49.32,7.838,-8.387,-16.41,-31.08,-36.45,-11.7,-70.33,27.67,66.89,53.77,-11.72,0,0,0,0,0,0,0,0,0,0,0,0,0,0,0,0,
103,15.11,16.35,164.3,185.2,65.42,39.37,25.78,12.99,-11.05,-26.43,1.28,-51.25,38.14,77.9,63.35,-2.799,0,0,0,0,0,0,0,0,0,0,0,0,0,0,0,0,
104,27.75,36.75,227.1,278.3,105.3,72.75,68.33,45.41,-28.63,-19.2,0.1039,-46.04,41.97,72.5,62.55,3.877,0,0,0,0,0,0,0,0,0,0,0,0,0,0,0,0,
105,46.1,45.14,284.8,371.1,147.1,117.2,106.1,83.48,-1.958,-5.562,-5.523,-44.17,52.95,85.55,62.68,17.05,0,0,0,0,0,0,0,0,0,0,0,0,0,0,0,0,
106,71.46,58.51,378.8,498.5,189.7,154.2,128.8,118.6,37.68,10.34,9.552,-40.84,56,92.42,68.95,15,0,0,0,0,0,0,0,0,0,0,0,0,0,0,0,0,
107,81.69,56.41,507.3,519.4,220.3,156.2,148.3,126.9,27.75,13.08,14.93,-49.69,27.6,60.17,56.15,-8.907,0,0,0,0,0,0,0,0,0,0,0,0,0,0,0,0,
108,81.14,34.96,568,497.7,221.4,155.9,169.4,136,8.287,18.13,7.251,-47.83,19.81,51.36,43.46,-12.99,0,0,0,0,0,0,0,0,0,0,0,0,0,0,0,0,
109,86.95,46.55,599,603.8,232.4,183.4,182,170.1,-7.212,32.5,13.22,-36.28,39.93,78.12,49.38,-10.64,0,0,0,0,0,0,0,0,0,0,0,0,0,0,0,0,
110,90.74,67.36,634.6,627.7,243.4,204.6,189.5,178.3,-3.341,36.07,24.83,-40,39.46,84.14,49.64,-23.58,0,0,0,0,0,0,0,0,0,0,0,0,0,0,0,0,
111,86.3,59.01,611.5,551.6,231.1,206.8,200.6,161.6,37.88,36.45,25.2,-47.25,37.67,84.32,41.87,-12.72,0,0,0,0,0,0,0,0,0,0,0,0,0,0,0,0,
112,73.34,64.69,607,613.9,240.1,203.1,203.3,175.6,56.32,51.76,12.64,-50.18,53.97,102.2,41.95,12.21,0,0,0,0,0,0,0,0,0,0,0,0,0,0,0,0,
113,55.09,89.23,615.3,647.5,250.9,187.6,189.1,195.3,32.66,66.28,0.0167,-53.9,63.84,111.2,43.93,12.16,0,0,0,0,0,0,0,0,0,0,0,0,0,0,0,0,
114,53.08,99.96,530.2,520.8,223.5,186.1,179.8,185.9,16.73,63.12,4.177,-47.31,71.42,108.7,42.84,12.49,0,0,0,0,0,0,0,0,0,0,0,0,0,0,0,0,
115,74.02,109.9,502.9,433,220.1,213.8,192,179.7,14.83,53.96,15.53,-31.06,82.89,105.9,48.22,22.39,0,0,0,0,0,0,0,0,0,0,0,0,0,0,0,0,
116,96.06,122.4,601.4,453.5,258.9,225.2,203.3,194.1,13.82,54.16,24.13,-16,85.01,99.77,61.44,18.21,0,0,0,0,0,0,0,0,0,0,0,0,0,0,0,0,
117,108.6,119.6,611.9,507.7,269.7,220.9,196.3,191.4,35.73,51.2,42.51,-1.131,79.35,93.73,68.73,13.55,0,0,0,0,0,0,0,0,0,0,0,0,0,0,0,0,
118,119.5,105.1,510.1,484.7,247.3,230.6,189.6,159.8,79.42,30.93,61.73,15.52,72.96,84.94,68.35,15.42,0,0,0,0,0,0,0,0,0,0,0,0,0,0,0,0,
119,128.8,88.68,444.1,392.8,235.7,222.7,181.5,151.5,93.14,22.71,66.39,29.09,70.33,72.69,71.96,7.077,0,0,0,0,0,0,0,0,0,0,0,0,0,0,0,0,
120,125.8,72.27,414.2,376.5,227.1,196.3,157.9,158.6,76.24,32.87,68,24.38,63.38,64.15,66.72,-6.745,0,0,0,0,0,0,0,0,0,0,0,0,0,0,0,0,
121,108.5,51.02,335.2,342.2,192.4,182.6,142,118.1,58.77,12.24,59.21,-0.7384,38.55,53.42,42,-17.59,0,0,0,0,0,0,0,0,0,0,0,0,0,0,0,0,
122,84.46,27.14,215.4,219.8,149.7,148.2,124.7,74.34,12.72,-14.9,30.75,-16.49,17.67,45.82,31.01,-25.4,0,0,0,0,0,0,0,0,0,0,0,0,0,0,0,0,
123,58.71,17.66,169,177.9,134.7,94.23,77.63,74.31,-22.41,13.64,15.4,-16.7,18.53,54.02,44.92,-27.84,0,0,0,0,0,0,0,0,0,0,0,0,0,0,0,0,
124,36.33,25.18,185.5,150.8,124.2,74.33,56.31,66.35,10.91,44.54,15.17,-28.31,20.15,63.42,43.67,-30.47,0,0,0,0,0,0,0,0,0,0,0,0,0,0,0,0,
125,16.25,34.14,124.3,57.26,83.59,65.24,82.1,45.66,19.44,28.84,-2.665,-46.62,20.89,64.95,17.44,-36.82,0,0,0,0,0,0,0,0,0,0,0,0,0,0,0,0,
126,-5.143,33.94,38.65,51.25,51.15,38.59,76.45,35.35,-21.14,15.5,-20.53,-53.76,28.61,67.11,-5.696,-39.21,0,0,0,0,0,0,0,0,0,0,0,0,0,0,0,0,
127,-13.04,24.43,54.06,87.68,57.48,31.2,46.56,23.43,-15.8,18.15,-8.917,-46.6,31.83,70.42,-5.193,-29.19,0,0,0,0,0,0,0,0,0,0,0,0,0,0,0,0,
128,10.72,24.37,98.28,79.76,69.57,51.45,66.19,33.38,18.31,24.57,33.15,-4.97,48.54,88.15,39.85,6.753,0,0,0,0,0,0,0,0,0,0,0,0,0,0,0,0,
129,59.33,50.38,101.9,108.4,81.04,82.55,104.2,59.14,53.59,41.41,95.18,59.23,89.61,125.8,109.5,65.32,0,0,0,0,0,0,0,0,0,0,0,0,0,0,0,0,
130,102.4,76.08,91.13,109,105.7,113.3,104.1,52.74,94.36,39.95,120,76.72,100.5,137.4,120.8,89.49,0,0,0,0,0,0,0,0,0,0,0,0,0,0,0,0,
131,104.5,62.17,55.91,33.95,108.2,110,79.98,33.66,73.62,15.12,63.56,28.29,50.17,93.14,50.39,34.63,0,0,0,0,0,0,0,0,0,0,0,0,0,0,0,0,
132,60.31,12.55,-1.577,-5.779,68.14,70.09,42.91,18.96,1.14,-11.2,-21.04,-36.03,-10.58,35.67,-28.71,-45.64,0,0,0,0,0,0,0,0,0,0,0,0,0,0,0,0,
133,11.57,-33.02,-41.96,-20.96,32.12,41.19,3.905,-11.26,-35.69,-49.04,-72.95,-75.98,-33.93,5.941,-66.46,-79.13,0,0,0,0,0,0,0,0,0,0,0,0,0,0,0,0,
134,-3.392,-48,-46.68,-57.01,34.81,38.01,3.334,-20.39,-23.26,-67.41,-81.71,-74.24,-31.18,-3.752,-67.08,-75.09,0,0,0,0,0,0,0,0,0,0,0,0,0,0,0,0,
135,2.173,-44.74,-29.95,-80.79,50.81,36.07,29.65,2.329,-0.3836,-37.07,-58.69,-40.48,-23.96,-1.604,-45.62,-63.12,0,0,0,0,0,0,0,0,0,0,0,0,0,0,0,0,
136,14.39,-36.96,-37.96,-97.66,54.75,34.7,36.69,2.966,-14.89,-13.94,-36.9,-5.192,-5.942,11.75,-22.43,-40.6,0,0,0,0,0,0,0,0,0,0,0,0,0,0,0,0,
137,44.02,-18.35,-73.1,-92.3,53.01,44.58,37.53,-1.097,-45.86,-20.57,-25.88,18.68,14.51,14.89,-9.066,-21.8,0,0,0,0,0,0,0,0,0,0,0,0,0,0,0,0,
138,61.19,-6.408,-77.85,-64.19,46.19,43.65,41.19,14.67,-24.5,-27.08,-13.35,19.9,7.145,0.7225,-10.04,-32.7,0,0,0,0,0,0,0,0,0,0,0,0,0,0,0,0,
139,41,-16.31,-54.56,-76.76,36.76,18.26,26.73,6.307,13.21,-33.52,-18.17,-5.076,-11.86,-5.068,-22.99,-54.2,0,0,0,0,0,0,0,0,0,0,0,0,0,0,0,0,
140,30.48,-13.67,-49.62,-95.8,38.28,4.864,24.68,-4.532,15.52,-28.85,-30.85,-21.26,-2.812,4.095,-14.75,-50.52,0,0,0,0,0,0,0,0,0,0,0,0,0,0,0,0,
141,45.66,8.31,-58.6,-69.34,41.47,22.85,41.75,15.62,16.23,-8.474,-14.74,-16.03,19.15,13.34,23.69,-34.14,0,0,0,0,0,0,0,0,0,0,0,0,0,0,0,0,
142,51.62,13.82,-68.77,-64.68,37.27,33.41,30.14,15.83,26.49,-7.046,3.355,-14.72,23.53,21.16,42,-29.34,0,0,0,0,0,0,0,0,0,0,0,0,0,0,0,0,
143,47.44,11.98,-93.83,-100.2,33.85,16.8,13.41,-2.911,26.33,-19.09,-7.787,-12.66,18.09,25.71,23.45,-21.86,0,0,0,0,0,0,0,0,0,0,0,0,0,0,0,0,
144,37.19,18.85,-119.5,-116.3,30.51,2.752,20.13,-4.997,8.498,-19.84,-20.84,-1.387,14.27,23.84,5.545,-9.814,0,0,0,0,0,0,0,0,0,0,0,0,0,0,0,0,
145,22.67,9.951,-122.4,-136.4,26.51,-2.696,0.2303,-15.16,-25.58,-23.18,-24.62,-6.686,8.463,21.48,-5.577,-13.98,0,0,0,0,0,0,0,0,0,0,0,0,0,0,0,0,
146,16.18,-11.3,-133.6,-197.7,17.67,-17.64,-39.85,-32.59,-43.86,-28.19,-32.56,-29.85,0.4784,15.93,-22,-23.64,0,0,0,0,0,0,0,0,0,0,0,0,0,0,0,0,
147,6.839,-17.07,-166.8,-225.8,2.581,-25.15,-44.21,-34.97,-18.84,-23.88,-28.54,-33.93,-4.649,7.573,-19.79,-24.61,0,0,0,0,0,0,0,0,0,0,0,0,0,0,0,0,
148,0.2904,-17.15,-171.4,-184,-7.5,-22.66,-34.84,-31.52,14.16,-28.4,-9.1,-14.69,-7.606,6.354,6.223,-26.17,0,0,0,0,0,0,0,0,0,0,0,0,0,0,0,0,
149,6.314,-32.25,-159.7,-172.6,-20.97,-39.7,-45.69,-32.03,-1.877,-43.51,-4.032,-7.255,-16.41,3.326,16.41,-28.11,0,0,0,0,0,0,0,0,0,0,0,0,0,0,0,0,
150,3.164,-50.57,-174.8,-209.9,-28.23,-49.86,-54.03,-45.57,-35.77,-48.42,-1.729,-9.206,-28.43,-6.913,8.918,-31.29,0,0,0,0,0,0,0,0,0,0,0,0,0,0,0,0,
151,4.41,-55.34,-172,-199.2,-5.784,-29.77,-49.72,-57.28,-15.01,-43.98,25.09,7.768,-28.83,-5.344,14.82,-43.2,0,0,0,0,0,0,0,0,0,0,0,0,0,0,0,0,
152,18.57,-53.03,-157.8,-175.6,2.118,-34.55,-51.88,-50.87,20.05,-39.81,42.6,21.81,-17.29,7.47,25.8,-48.65,0,0,0,0,0,0,0,0,0,0,0,0,0,0,0,0,
153,12.09,-45.5,-191.1,-221.5,-27.75,-67.45,-63.08,-56.26,20.42,-34.62,34.48,15.49,-2.429,14.22,35.49,-29.44,0,0,0,0,0,0,0,0,0,0,0,0,0,0,0,0,
154,4.075,-25.89,-218.9,-253,-41.92,-67.8,-71.71,-67.94,18.01,-27.25,41.64,19.28,18.09,22.98,58.72,1.903,0,0,0,0,0,0,0,0,0,0,0,0,0,0,0,0,
155,21.99,-8.178,-205.5,-210.4,-29.9,-50.18,-72.78,-57.52,-2.941,-19.35,59.5,27.38,38.25,39.12,73.14,16.08,0,0,0,0,0,0,0,0,0,0,0,0,0,0,0,0,
156,37.93,-4.214,-199.5,-193.7,-19.69,-54.26,-66.99,-51.4,-18.25,-18.62,56.09,20.64,39.28,42.13,61.48,4.409,0,0,0,0,0,0,0,0,0,0,0,0,0,0,0,0,
157,40.75,-7.333,-194.5,-226.1,-17.4,-60.84,-62.46,-56.39,38.35,-28.08,46.79,25.88,24.71,31.16,49.35,-9.726,0,0,0,0,0,0,0,0,0,0,0,0,0,0,0,0,
158,37.67,-15.71,-189.1,-223.9,-23.85,-56.71,-69.64,-56.31,65.57,-29.61,38.16,33.55,17.68,29.25,41.8,-10.56,0,0,0,0,0,0,0,0,0,0,0,0,0,0,0,0,
159,27.75,-21.91,-203.9,-216.2,-23.46,-50.85,-75.19,-63.79,13.16,-19.91,18.67,12.14,22.57,38.05,30.2,-12.39,0,0,0,0,0,0,0,0,0,0,0,0,0,0,0,0,
160,19.35,-14.31,-196.8,-236.1,-9.927,-38.78,-58.74,-69.68,11.25,-18.86,12.18,0.3272,26.59,45.77,28.99,-20.21,0,0,0,0,0,0,0,0,0,0,0,0,0,0,0,0,
161,16.43,-7.448,-170.3,-193.2,-12.4,-27.19,-39.56,-64.13,31.65,-20.35,23.56,21.02,24.28,49.94,35.19,-23.16,0,0,0,0,0,0,0,0,0,0,0,0,0,0,0,0,
162,18.91,-19.44,-175.8,-124.4,-28.18,-27.28,-36.43,-65.65,-13.8,-16.52,18.98,32.91,18.13,44.4,32.52,-29.44,0,0,0,0,0,0,0,0,0,0,0,0,0,0,0,0,
163,25.51,-32.03,-181.4,-152.7,-19.76,-18.1,-27.78,-64.18,-13.95,-23.8,9.329,36.56,14.22,30.2,30.68,-42.45,0,0,0,0,0,0,0,0,0,0,0,0,0,0,0,0,
164,28.93,-22.25,-153.9,-185.4,2.271,8.033,-16.07,-49.82,50.21,-35.63,21.87,53.22,13.89,22.75,36.07,-46.39,0,0,0,0,0,0,0,0,0,0,0,0,0,0,0,0,
165,31.68,-9.9,-135.8,-133.5,4.368,18.91,-19.11,-46.89,48.4,-40.73,31.43,60.11,9.842,25.02,41.76,-47.14,0,0,0,0,0,0,0,0,0,0,0,0,0,0,0,0,
166,32.78,-13.6,-140.4,-120.3,1.106,10.84,-11.68,-48.96,15.86,-45.59,26.08,60.26,7.344,31.86,53.82,-49.11,0,0,0,0,0,0,0,0,0,0,0,0,0,0,0,0,
167,25.85,-11.46,-140,-166.2,2.263,8.436,6.141,-29.12,31.24,-35.83,34.64,76.74,15.15,38.87,69.03,-36.75,0,0,0,0,0,0,0,0,0,0,0,0,0,0,0,0,
168,22.34,-3.842,-148.8,-149.1,-4.595,6.976,-1.023,-13.7,51.59,-16.92,53.05,85.53,16.51,33.32,69.1,-28.32,0,0,0,0,0,0,0,0,0,0,0,0,0,0,0,0,
169,20.58,-18.76,-191.3,-122.5,-2.935,-5.2,-23.45,-34.6,67.49,-23.72,50.42,65.29,-0.5109,18.32,52.85,-45.58,0,0,0,0,0,0,0,0,0,0,0,0,0,0,0,0,
170,-0.4198,-43,-228.2,-192.8,-8.774,-23.52,-42.81,-60.2,54.99,-39.38,24.6,27.88,-18.44,12.39,30.77,-66.26,0,0,0,0,0,0,0,0,0,0,0,0,0,0,0,0,
171,-29.99,-50.38,-211.2,-242.8,-48.43,-42.64,-63.05,-64.93,-19.87,-42,-3.951,-10.87,-27.34,12.23,12.65,-77.68,0,0,0,0,0,0,0,0,0,0,0,0,0,0,0,0,
172,-46.45,-50.33,-185.8,-189.3,-70.76,-57.57,-75.19,-69.46,-47.99,-50.66,-20.71,-30.65,-33.51,9.652,4.032,-85.62,0,0,0,0,0,0,0,0,0,0,0,0,0,0,0,0,
173,-54.97,-52.44,-211.4,-162.8,-62.58,-67.44,-74.82,-72.96,-8.633,-51.26,-25.71,-25.77,-31.39,12.61,1.13,-84.3,0,0,0,0,0,0,0,0,0,0,0,0,0,0,0,0,
174,-54.43,-51.35,-231.3,-186.5,-67.81,-72.81,-71.88,-65.97,-16.73,-38.46,-25.6,-15.54,-17.71,19.07,4.834,-79.45,0,0,0,0,0,0,0,0,0,0,0,0,0,0,0,0,
175,-44.87,-51.02,-195.5,-179.6,-67.67,-72.97,-71.23,-63.49,-25.2,-43.89,-21.61,-16.23,-12.75,16.93,9.62,-88.51,0,0,0,0,0,0,0,0,0,0,0,0,0,0,0,0,
176,-43.52,-54.55,-174.6,-183.3,-51.85,-66.87,-64.32,-52.95,11.79,-43.8,-12.6,-26.68,-23.66,7.81,2.673,-107.3,0,0,0,0,0,0,0,0,0,0,0,0,0,0,0,0,
177,-42.3,-55.04,-194.6,-190.3,-54.69,-55.16,-49.73,-25.28,1.458,-31.91,-10.06,-31.7,-28.47,1.89,-1.863,-108.8,0,0,0,0,0,0,0,0,0,0,0,0,0,0,0,0,
178,-39.32,-57.45,-197.2,-158.8,-74.73,-63.88,-54.07,-22.33,-39.28,-54.8,-27.28,-32.5,-27.76,0.0283,0.0653,-94.23,0,0,0,0,0,0,0,0,0,0,0,0,0,0,0,0,
179,-55.61,-67.33,-191.1,-166,-93.55,-95.74,-68.17,-37.9,-42.46,-68.25,-51.53,-41.8,-37.98,-4.322,-14.65,-98.48,0,0,0,0,0,0,0,0,0,0,0,0,0,0,0,0,
180,-64.93,-68.59,-210.6,-203.5,-95.24,-92.49,-55.6,-19.29,-33.54,-32.41,-63.8,-43.04,-39.97,-4.763,-27.61,-107.6,0,0,0,0,0,0,0,0,0,0,0,0,0,0,0,0,
181,-47.11,-55.13,-226.6,-190.6,-77.17,-59.55,-42.13,5.726,-28.31,-21.2,-65.13,-32.26,-26.32,5.084,-14.69,-91.15,0,0,0,0,0,0,0,0,0,0,0,0,0,0,0,0,
182,-35.33,-41.93,-205.1,-148.6,-63.11,-59.74,-38.09,0.5336,-10.84,-39.62,-56.79,-30.03,-26.18,7.856,-2.551,-77.93,0,0,0,0,0,0,0,0,0,0,0,0,0,0,0,0,
183,-25.58,-31.76,-154.9,-123.7,-56.57,-61.77,-13.55,-3.293,17.77,-30.28,-36.85,-19.55,-28,3.785,4.492,-68.16,0,0,0,0,0,0,0,0,0,0,0,0,0,0,0,0,
184,-0.8888,-21.06,-131.9,-160.5,-51.28,-33.8,-2.455,-15.98,26.49,-22.6,-11.41,8.395,-10.29,15.35,24.36,-40.68,0,0,0,0,0,0,0,0,0,0,0,0,0,0,0,0,
185,7.445,-19.51,-168.8,-211,-52.94,-33.76,-20.41,-39.5,7.811,-33.54,3.003,9.768,-14.62,21.77,25.38,-45.05,0,0,0,0,0,0,0,0,0,0,0,0,0,0,0,0,
186,-15.36,-36.61,-195.7,-161,-59.76,-63.23,-27.36,-14.11,2.771,-33.74,-14.5,-34.84,-56.29,-2.051,-13.65,-91.13,0,0,0,0,0,0,0,0,0,0,0,0,0,0,0,0,
187,-49.77,-65.95,-173,-123.1,-84.2,-77.82,-42.5,18.36,-12.3,-37.15,-47.56,-84.34,-81.68,-22.91,-47.45,-111.6,0,0,0,0,0,0,0,0,0,0,0,0,0,0,0,0,
188,-74.72,-86.13,-170.9,-189.3,-126.7,-92.46,-76.93,1.194,-62.69,-45.04,-57.9,-97.85,-74.2,-17.11,-43.39,-97.41,0,0,0,0,0,0,0,0,0,0,0,0,0,0,0,0,
189,-76.37,-83.55,-187.8,-186.5,-146.7,-99.61,-77.58,4.583,-65.84,-35.83,-49.01,-79.59,-56.94,0.507,-22.83,-77.17,0,0,0,0,0,0,0,0,0,0,0,0,0,0,0,0,
190,-64.89,-69.23,-151.8,-121.4,-137.1,-72.73,-41.38,35.7,-16.92,-27.63,-40.34,-57.17,-35.28,19.46,-11,-52.61,0,0,0,0,0,0,0,0,0,0,0,0,0,0,0,0,
191,-59.12,-58.95,-120,-142.6,-137.6,-52.67,-12.36,38.71,-15.72,-28.89,-44.05,-48.86,-28.1,21.91,-19.68,-43.18,0,0,0,0,0,0,0,0,0,0,0,0,0,0,0,0,
192,-60.5,-53.37,-162.4,-170.4,-153.7,-53.77,0.8096,40.93,-54.33,-24.01,-69.15,-57.63,-45.46,2.28,-48.89,-65.29,0,0,0,0,0,0,0,0,0,0,0,0,0,0,0,0,
193,-62.73,-53.01,-178.1,-142.3,-151.9,-41.51,9.565,51.77,-58.38,-24.52,-88.51,-65.72,-54.13,-9.23,-74.02,-84.01,0,0,0,0,0,0,0,0,0,0,0,0,0,0,0,0,
194,-64.64,-67.04,-111.4,-103.7,-134.9,-35.1,9.311,57.89,-43.4,-34.72,-85.46,-61.79,-51.09,-9.907,-74.95,-72.48,0,0,0,0,0,0,0,0,0,0,0,0,0,0,0,0,
195,-65.26,-86.58,-81.36,-61.06,-135,-48.17,-7.906,75.58,-51.21,-31.85,-83.28,-59.35,-60.73,-20.15,-61,-60.18,0,0,0,0,0,0,0,0,0,0,0,0,0,0,0,0,
196,-60.2,-94.65,-117.3,-71.33,-141,-56.76,-34.35,71.99,-54.39,-30.5,-80.27,-57.93,-71.85,-30.57,-48.41,-71.86,0,0,0,0,0,0,0,0,0,0,0,0,0,0,0,0,
197,-62.91,-104.6,-133.1,-126.7,-140.9,-73.97,-55.04,34.62,-41.84,-56.96,-74.04,-55.48,-76.91,-37.47,-45.5,-84.12,0,0,0,0,0,0,0,0,0,0,0,0,0,0,0,0,
198,-83.83,-120.2,-142.2,-138,-158.5,-96.51,-57.5,18.8,-54.29,-72.04,-80.76,-64.21,-82.49,-48.93,-48.05,-81.18,0,0,0,0,0,0,0,0,0,0,0,0,0,0,0,0,
199,-94.85,-118.1,-164.1,-151.4,-173.2,-92.68,-43.29,28.66,-72.72,-51.48,-85.86,-69.2,-78.89,-54.1,-51.73,-83.46,0,0,0,0,0,0,0,0,0,0,0,0,0,0,0,0,
200,-87.12,-108.8,-154.4,-164.6,-153.6,-78.55,-32.21,36.69,-55.38,-42.15,-83.23,-57.62,-69.77,-52.23,-65.67,-95.95,0,0,0,0,0,0,0,0,0,0,0,0,0,0,0,0,
201,-86.4,-108.4,-146.4,-93.44,-137.2,-77.36,-32.42,48.07,-35.05,-50.1,-86.21,-46.86,-64.88,-52.07,-79.29,-96.03,0,0,0,0,0,0,0,0,0,0,0,0,0,0,0,0,
202,-93.44,-102.2,-167.6,-61.31,-149.7,-85.66,-41.63,48.26,-53.85,-46.72,-83.6,-40.12,-57.83,-46.96,-69.53,-77.31,0,0,0,0,0,0,0,0,0,0,0,0,0,0,0,0,
203,-99.88,-97.13,-171.6,-154.8,-165,-92.55,-51.37,19.03,-90.37,-51.23,-73.84,-28.87,-45.73,-32.32,-43.2,-51.53,0,0,0,0,0,0,0,0,0,0,0,0,0,0,0,0,
204,-105.3,-104.1,-167.1,-217.1,-169.3,-94.91,-41.07,-5.093,-84.81,-60.64,-68.89,-10.91,-29.29,-16.09,-13.61,-26.82,0,0,0,0,0,0,0,0,0,0,0,0,0,0,0,0,
205,-109.6,-107.8,-169.5,-185.8,-171.1,-118.5,-36.41,-0.0396,-52.46,-45.91,-62.71,9.464,-17.81,-11.97,9.268,-15.4,0,0,0,0,0,0,0,0,0,0,0,0,0,0,0,0,
206,-119.9,-105.1,-156.8,-141.5,-175.1,-146.6,-66.37,9.21,-74.22,-31.01,-52.63,16.14,-19.85,-19.16,10.71,-23.76,0,0,0,0,0,0,0,0,0,0,0,0,0,0,0,0,
207,-122.5,-99.03,-155.1,-128.5,-171.5,-128.2,-78.01,20.11,-101.7,-33.26,-41.68,11.04,-22.45,-18.47,-0.0045,-37.03,0,0,0,0,0,0,0,0,0,0,0,0,0,0,0,0,
208,-108.9,-95.49,-173.7,-155.1,-160.6,-100.7,-61,36.55,-56.87,-31.27,-34.89,7.666,-25.35,-10.94,-9.969,-41.93,0,0,0,0,0,0,0,0,0,0,0,0,0,0,0,0,
209,-109.2,-108.6,-183.3,-170.2,-169.6,-106.7,-76.35,23.96,-28.47,-29.49,-44.9,-4.617,-33.53,-7.275,-19.41,-32.99,0,0,0,0,0,0,0,0,0,0,0,0,0,0,0,0,
210,-125,-124,-193.4,-159.5,-188.6,-120.4,-105.7,-9.129,-56.29,-33.25,-61.6,-19.55,-29.72,0.9378,-15.84,-12.97,0,0,0,0,0,0,0,0,0,0,0,0,0,0,0,0,
211,-128.3,-121.7,-200.8,-180.4,-178.2,-140.6,-105.9,-17.35,-59.96,-28.38,-60.12,-7.332,-20.67,11.38,-0.93,-2.32,0,0,0,0,0,0,0,0,0,0,0,0,0,0,0,0,
212,-122.6,-113.1,-186.4,-186,-156.8,-147.4,-95.92,-13.35,-54.23,-32.5,-44.78,19.64,-24.24,14.66,10.13,-2.649,0,0,0,0,0,0,0,0,0,0,0,0,0,0,0,0,
213,-116.4,-106.9,-171.8,-163.4,-152.8,-109.6,-86.59,-19.59,-69.08,-52.41,-34.14,31.04,-26.44,13.84,24.94,1.967,0,0,0,0,0,0,0,0,0,0,0,0,0,0,0,0,
214,-105.1,-99.91,-174.7,-194.7,-152.1,-90.64,-80.86,-16.19,-64.65,-46.44,-31.77,38.89,-23.6,7.811,39.35,-3.008,0,0,0,0,0,0,0,0,0,0,0,0,0,0,0,0,
215,-94.48,-87.22,-177,-195.5,-151,-116.9,-81.51,-3.244,-57.1,-26.31,-33.56,55.37,-27.85,1.487,34.27,-27.8,0,0,0,0,0,0,0,0,0,0,0,0,0,0,0,0,
216,-83.67,-68.79,-159.6,-117.2,-146.2,-105.1,-64.55,-9.568,-61.28,-43.56,-33.6,59.01,-33.65,1.305,18.23,-47.01,0,0,0,0,0,0,0,0,0,0,0,0,0,0,0,0,
217,-67.94,-60.46,-136.8,-105,-130.6,-55.56,-35.27,-22.75,-51.38,-62.28,-25.99,46.44,-32.12,-0.2642,8.751,-44.48,0,0,0,0,0,0,0,0,0,0,0,0,0,0,0,0,
218,-63.52,-62.05,-126.9,-128.4,-124.9,-50.28,-27.41,-5.031,-53.65,-40.62,-9.967,43.5,-19.51,2.268,10.85,-27.78,0,0,0,0,0,0,0,0,0,0,0,0,0,0,0,0,
219,-70.74,-52.76,-112.2,-83.73,-126,-68.34,-33.14,21.23,-63.9,-24.45,10.34,56.19,-2.439,12.78,19.75,-13.91,0,0,0,0,0,0,0,0,0,0,0,0,0,0,0,0,
220,-68.54,-37.09,-97.12,-76.9,-117.5,-50.75,-21.8,23.18,-42.78,-31.4,26.75,65.31,0.2634,14.37,22.48,-16.6,0,0,0,0,0,0,0,0,0,0,0,0,0,0,0,0,
221,-63.13,-27.3,-100.2,-113.6,-116.9,-36.6,5.949,31.66,-35.98,-30.93,35.11,61,-10.74,7.849,17.18,-28.99,0,0,0,0,0,0,0,0,0,0,0,0,0,0,0,0,
222,-61.77,-20.46,-101.3,-82.22,-116,-56.12,17.91,53.36,-62.18,-27.92,32.26,49.4,-21.92,1.629,5.732,-38.73,0,0,0,0,0,0,0,0,0,0,0,0,0,0,0,0,
223,-67.88,-26.09,-104.9,-76.1,-107.2,-70.33,-0.1819,55.92,-69.38,-32.4,11.83,32.55,-33.67,-7.208,-14.59,-43.16,0,0,0,0,0,0,0,0,0,0,0,0,0,0,0,0,
224,-101,-47.16,-122.9,-137.1,-121.8,-78.49,-21.8,48.69,-62.9,-37.15,-5.697,13.94,-39.85,-6.61,-25.96,-38.39,0,0,0,0,0,0,0,0,0,0,0,0,0,0,0,0,
225,-126.1,-61.6,-135.4,-124.5,-144.7,-95.25,-31.64,39.53,-65.22,-32.54,-1.042,8.138,-35.01,4.065,-20.55,-27.9,0,0,0,0,0,0,0,0,0,0,0,0,0,0,0,0,
226,-110.4,-66.51,-147.3,-101.3,-147.1,-100.4,-40.49,21.58,-75.73,-15.5,-2.898,12.43,-36.41,2.721,-21.87,-25.95,0,0,0,0,0,0,0,0,0,0,0,0,0,0,0,0,
227,-104.2,-74.2,-141.3,-150.2,-141.8,-100.2,-45.91,23.24,-85.47,-18.67,-10.95,11.32,-46.88,-5.185,-28.21,-31.51,0,0,0,0,0,0,0,0,0,0,0,0,0,0,0,0,
228,-107.6,-77.19,-109.2,-114.8,-127.2,-102.9,-41.64,45.07,-77.34,-50.9,0.0092,0.4447,-56.1,-9.352,-28.96,-37.7,0,0,0,0,0,0,0,0,0,0,0,0,0,0,0,0,
229,-91.93,-75.58,-123.9,-41.28,-120.3,-94.99,-34.69,41.95,-85.03,-59.06,-5.942,-15.79,-68.9,-22.71,-36.64,-51.68,0,0,0,0,0,0,0,0,0,0,0,0,0,0,0,0,
230,-98.79,-80.87,-162.1,-100.4,-145.3,-97.55,-36.6,13.72,-101.2,-37.7,-28.35,-13.14,-78.32,-36.92,-39.54,-65.72,0,0,0,0,0,0,0,0,0,0,0,0,0,0,0,0,
231,-113.8,-86.94,-138.1,-153.3,-158.3,-115.6,-52.89,0.2807,-80.97,-32.05,-16.97,11.18,-76.13,-35.25,-31.43,-61.38,0,0,0,0,0,0,0,0,0,0,0,0,0,0,0,0,
232,-97.11,-82.84,-113.3,-114.7,-136.5,-101.7,-58.17,13.41,-98.31,-33.81,0.3974,21.31,-66.19,-25.17,-33.42,-46.31,0,0,0,0,0,0,0,0,0,0,0,0,0,0,0,0,
233,-81.01,-57.99,-124.5,-100.7,-109.9,-62.61,-29.94,29.93,-122.1,-17.48,0.626,30.17,-40.02,-14.35,-30.03,-33.21,0,0,0,0,0,0,0,0,0,0,0,0,0,0,0,0,
234,-67,-20.72,-105.8,-84.1,-87.72,-55.74,-2.679,25.47,-37.21,-4.369,11.4,51.63,-15.77,-9.165,-13.95,-23.41,0,0,0,0,0,0,0,0,0,0,0,0,0,0,0,0,
235,-47.1,-8.486,-75.34,-39.67,-84.96,-63.14,0.4619,19.91,3.297,-8.435,21.52,47.3,-14.53,-7.436,-7.302,-11.54,0,0,0,0,0,0,0,0,0,0,0,0,0,0,0,0,
236,-42.63,-15.44,-67.58,-49.24,-101.1,-45.19,3.42,46.89,-75.6,-7.896,27.1,40.95,-5.284,2.798,5.654,12.11,0,0,0,0,0,0,0,0,0,0,0,0,0,0,0,0,
237,-36.8,-9.027,-73.01,-94.75,-99.38,-38.54,5.617,75.22,-72.16,1.77,39.47,64.69,13.77,15.33,31.17,35.92,0,0,0,0,0,0,0,0,0,0,0,0,0,0,0,0,
238,-26.79,3.203,-83.87,-83.21,-78.82,-39.32,8.697,76.33,9.054,12.38,63.01,85.96,29.73,41.87,62.84,62.38,0,0,0,0,0,0,0,0,0,0,0,0,0,0,0,0,
239,-17.79,29.03,-44.64,-2.784,-56.07,-1.733,34.95,83.15,37.06,32.34,114.3,108.8,62.16,85.16,106.5,106.9,0,0,0,0,0,0,0,0,0,0,0,0,0,0,0,0,
240,3.875,61.4,1.57,15.96,-48.94,15.36,48.58,85.46,24.17,39.14,129,113,61.18,77.25,99.53,107.2,0,0,0,0,0,0,0,0,0,0,0,0,0,0,0,0,
241,-3.091,38.32,-74.18,-73.67,-84.76,-22.95,15.63,45.44,-33,0.5741,55.44,53.23,-5.351,12.34,21.21,31.62,0,0,0,0,0,0,0,0,0,0,0,0,0,0,0,0,
242,-49.66,-18.96,-155.3,-102.5,-121,-45.07,-20.9,-1.499,-85.23,-45.1,1.041,1.788,-53.78,-30.04,-24.44,-24.3,0,0,0,0,0,0,0,0,0,0,0,0,0,0,0,0,
243,-74.35,-40.97,-93.63,-56.77,-105.6,-54.89,-39.2,-9.394,-54.57,-58.85,4.333,5.845,-67.81,-51.48,-24.88,-28.81,0,0,0,0,0,0,0,0,0,0,0,0,0,0,0,0,
244,-77.61,-53.62,-38.4,-65.18,-88.66,-80.55,-58.16,13.22,-34.65,-62.33,-11.12,9.961,-87.99,-70.07,-43.34,-36.93,0,0,0,0,0,0,0,0,0,0,0,0,0,0,0,0,
245,-85.39,-72.56,-70.36,-71.94,-101.1,-74.65,-58.61,26.21,-56.17,-57.53,-19.35,17.84,-80.01,-48.94,-45.93,-35.96,0,0,0,0,0,0,0,0,0,0,0,0,0,0,0,0,
246,-79.67,-59.25,-75.89,-62.09,-97.35,-49.82,-34.05,12.12,-32.58,-33.55,1.304,36.76,-50.76,-18.12,-23.47,-13.86,0,0,0,0,0,0,0,0,0,0,0,0,0,0,0,0,
247,-68.67,-38.1,-73.63,-86.46,-79.8,-49.09,-35.77,10.66,-21.45,-21.86,-0.8155,34.83,-46.65,-20.17,-23.25,-3.193,0,0,0,0,0,0,0,0,0,0,0,0,0,0,0,0,
248,-66.97,-37.81,-100.9,-60.07,-78.27,-50.81,-64.28,24.15,-56.63,-26.98,-7.437,35.35,-43.69,-23.8,-27.84,-0.3426,0,0,0,0,0,0,0,0,0,0,0,0,0,0,0,0,
249,-58.59,-31.24,-91.16,-40.51,-75.44,-46.26,-56.58,7.433,-41.24,-19.55,-0.5911,35.99,-33.34,-19.94,-27.17,0.0043,0,0,0,0,0,0,0,0,0,0,0,0,0,0,0,0,
250,-53.52,-27.41,-80.52,-116.7,-67.16,-37.08,-30.51,-4.059,-9.847,-19.07,-6.005,6.223,-41.05,-27.06,-38.83,-13.1,0,0,0,0,0,0,0,0,0,0,0,0,0,0,0,0,
251,-65.04,-43.4,-105.4,-116.9,-67.89,-14.77,-41.69,23.86,-42.44,-39.06,-3.906,-7.895,-47.39,-33.9,-34.42,-19.92,0,0,0,0,0,0,0,0,0,0,0,0,0,0,0,0,
252,-64.18,-39.27,-94.8,-47.29,-65.64,-9.482,-48.25,34.16,-63.45,-35.69,10.97,11.58,-36.14,-29.69,-15.79,-9.169,0,0,0,0,0,0,0,0,0,0,0,0,0,0,0,0,
253,-51.62,-14.52,-66.31,-82.78,-65.8,-36.61,-29.88,14.91,-29.92,-11.54,12.74,9.473,-27.32,-22.07,-20.54,-5.962,0,0,0,0,0,0,0,0,0,0,0,0,0,0,0,0,
254,-66.07,-17.08,-74.99,-109.7,-87.52,-58.39,-45.77,6.298,-6.702,-15.63,9.967,-13.44,-29.57,-22.28,-24.22,-12.46,0,0,0,0,0,0,0,0,0,0,0,0,0,0,0,0,
255,-89.82,-30.44,-83.73,-65.46,-105.3,-50.52,-71.62,4.237,-7.401,-31.93,9.684,-16.65,-30.48,-22.27,-0.5675,2.088,0,0,0,0,0,0,0,0,0,0,0,0,0,0,0,0,
256,-86.18,-18.86,-65.74,-71.15,-92.79,-35.75,-51.23,5.067,-7.699,-23.36,12.61,-3.56,-24.61,-12.39,13.84,26.98,0,0,0,0,0,0,0,0,0,0,0,0,0,0,0,0,
257,-80.12,-11.55,-36.89,-70.14,-79.66,-43.75,-32.69,13.24,-17.49,-19.02,14.63,-0.0361,-36.05,-26.25,-12.55,10.35,0,0,0,0,0,0,0,0,0,0,0,0,0,0,0,0,
258,-99.79,-36.43,-47.19,-56.68,-104.3,-65.67,-53.65,4.163,-51.73,-52.36,-20.41,-22.47,-81.71,-75.11,-66.03,-44.86,0,0,0,0,0,0,0,0,0,0,0,0,0,0,0,0,
259,-133,-68.9,-122.1,-109.4,-148.5,-84.08,-70.65,-19.72,-92.99,-90.98,-76.35,-53.7,-120.4,-104.5,-98.65,-79.75,0,0,0,0,0,0,0,0,0,0,0,0,0,0,0,0,
260,-157,-76.6,-151.3,-122.7,-161.5,-97.31,-59.76,-26.91,-100.4,-95.24,-89.22,-54.93,-117.5,-99.89,-84.79,-75.5,0,0,0,0,0,0,0,0,0,0,0,0,0,0,0,0,
261,-156.8,-63.61,-92.16,-101.1,-144.8,-93.93,-50.67,-22.9,-85.7,-89.41,-74.28,-37.83,-104.5,-102.1,-70.14,-66.17,0,0,0,0,0,0,0,0,0,0,0,0,0,0,0,0,
262,-146.5,-57.09,-92.55,-128.9,-148.4,-93.37,-71.96,-26.04,-85.28,-101.3,-69.95,-38.36,-105.6,-116.7,-79.48,-71.93,0,0,0,0,0,0,0,0,0,0,0,0,0,0,0,0,
263,-144.2,-59.86,-163,-109.8,-170,-118.6,-96.23,-33.37,-77.36,-102.5,-62.55,-40.75,-103.8,-122.3,-75.02,-79.16,0,0,0,0,0,0,0,0,0,0,0,0,0,0,0,0,
264,-135.3,-55.9,-146.7,-70.24,-162.4,-120.6,-79.06,-47.62,-81.9,-82.93,-59.5,-32.89,-96.17,-114,-62.48,-74.8,0,0,0,0,0,0,0,0,0,0,0,0,0,0,0,0,
265,-119.4,-50.07,-78.76,-109.9,-142.2,-104.8,-63.94,-62.05,-126.1,-72.99,-75.15,-40.63,-92.92,-101.5,-75.13,-66.44,0,0,0,0,0,0,0,0,0,0,0,0,0,0,0,0,
266,-126.2,-57.55,-110.6,-153.5,-156.1,-135.3,-104.4,-51.28,-125,-70.95,-89.54,-59.94,-91.49,-98.7,-97.28,-67.08,0,0,0,0,0,0,0,0,0,0,0,0,0,0,0,0,
267,-147.9,-67.96,-174.4,-165.8,-176.6,-155.8,-131.3,-26.46,-87.44,-61.1,-95.86,-62.29,-85.61,-98.17,-104.8,-68.86,0,0,0,0,0,0,0,0,0,0,0,0,0,0,0,0,
268,-145.3,-58.8,-153.5,-144.1,-172.7,-126,-106.9,-24.3,-107.8,-52.79,-94.11,-50.07,-75.6,-86.77,-95.78,-55.11,0,0,0,0,0,0,0,0,0,0,0,0,0,0,0,0,
269,-128.3,-45.64,-136.3,-80.54,-170.9,-128.1,-111.4,-38.38,-109.2,-49.65,-81.2,-45.3,-68.84,-80.63,-79.24,-38.26,0,0,0,0,0,0,0,0,0,0,0,0,0,0,0,0,
270,-127.4,-49.31,-151.5,-65.55,-167.9,-149,-129.9,-38.74,-59.97,-46.8,-75.62,-49.03,-62.36,-85.44,-67.53,-38.19,0,0,0,0,0,0,0,0,0,0,0,0,0,0,0,0,
271,-130.1,-44.28,-106.7,-78.55,-155.3,-127.2,-91.75,-28.6,-77.12,-46.21,-79.67,-43.56,-51.22,-85.2,-64.37,-44.79,0,0,0,0,0,0,0,0,0,0,0,0,0,0,0,0,
272,-126,-26.42,-68.94,-58.67,-156.9,-110.3,-54.5,-18.73,-102.3,-40.88,-68.7,-27.87,-47.43,-86.64,-67.17,-45.1,0,0,0,0,0,0,0,0,0,0,0,0,0,0,0,0,
273,-119.1,-20.22,-86.02,-82.81,-147.6,-109.3,-57.62,3.282,-48.72,-19.8,-44.85,-9.263,-44.98,-90.49,-63.54,-37.69,0,0,0,0,0,0,0,0,0,0,0,0,0,0,0,0,
274,-99.11,-11.89,-61.38,-104.1,-117.8,-87.37,-59.4,27.45,-28.71,6.065,-39.34,12.47,-31.31,-79.29,-48.85,-24.82,0,0,0,0,0,0,0,0,0,0,0,0,0,0,0,0,
275,-83.11,-2.115,-31.6,-52.34,-115.5,-75.41,-61.79,22.5,-59.16,16.41,-60.42,24.99,-26.82,-66.25,-41.89,-22.38,0,0,0,0,0,0,0,0,0,0,0,0,0,0,0,0,
276,-87.45,-13.35,-64.68,-45.63,-124.7,-84.25,-60.81,1.145,-54.2,11.23,-73.78,27.84,-33.09,-64.27,-37.91,-33.36,0,0,0,0,0,0,0,0,0,0,0,0,0,0,0,0,
277,-85.94,-24.93,-92.68,-89.71,-117.3,-83.09,-49.54,-6.912,-58.49,5.692,-55.69,38.33,-26.05,-54.89,-18.78,-34.81,0,0,0,0,0,0,0,0,0,0,0,0,0,0,0,0,
278,-79.74,-20.76,-93.59,-87.49,-120.2,-76.77,-59.59,-5.892,-75.12,6.106,-30.7,48.36,-15.46,-39.43,-2.723,-21.27,0,0,0,0,0,0,0,0,0,0,0,0,0,0,0,0,
279,-84.32,-16.94,-99.04,-77.68,-120.9,-81.02,-72.74,-5.917,-40.56,5.599,-26.22,49.07,-15.63,-34.21,-7.278,-11.49,0,0,0,0,0,0,0,0,0,0,0,0,0,0,0,0,
280,-85.87,-20.12,-103.4,-94.44,-108.2,-99.03,-74.04,-11.63,-32.71,5.076,-37.75,47.68,-14.86,-28.71,-21.96,-13.59,0,0,0,0,0,0,0,0,0,0,0,0,0,0,0,0,
281,-93.8,-25.17,-97.04,-114.8,-117.9,-120.2,-92.49,-19.41,-83.06,11.59,-47.42,41.59,-12.26,-17.66,-32.27,-17.65,0,0,0,0,0,0,0,0,0,0,0,0,0,0,0,0,
282,-114.3,-24.77,-87.63,-116.9,-138.8,-118.5,-103.2,-15.12,-67.36,6.859,-47.51,35.43,-18.71,-23.34,-36.73,-20.77,0,0,0,0,0,0,0,0,0,0,0,0,0,0,0,0,
283,-119,-25.45,-97.78,-80.71,-135.2,-94.82,-88.34,-12.84,-19.73,-19.08,-50.94,33.4,-28.1,-43.66,-40.67,-28.69,0,0,0,0,0,0,0,0,0,0,0,0,0,0,0,0,
284,-110.3,-33.66,-101.7,-72.82,-115.2,-82.07,-81.11,-22.36,-67.88,-29.88,-65.98,24.96,-28.16,-45.53,-34.37,-34.03,0,0,0,0,0,0,0,0,0,0,0,0,0,0,0,0,
285,-109.3,-32.59,-56.4,-99.95,-93.77,-96.28,-81.69,-12.57,-107.4,-15.44,-77.84,10.76,-26.38,-33.87,-24.4,-37.33,0,0,0,0,0,0,0,0,0,0,0,0,0,0,0,0,
286,-114.1,-27.11,-14.5,-49.22,-84.19,-119,-78.89,10.63,-51.27,-15.07,-80.08,-4.936,-34.36,-40.38,-35.68,-50.1,0,0,0,0,0,0,0,0,0,0,0,0,0,0,0,0,
287,-121.1,-34.31,-26.65,-6.917,-98.52,-123.5,-71.75,15.57,-45.86,-29.78,-80.21,-16.13,-43.86,-53.86,-46.14,-58.04,0,0,0,0,0,0,0,0,0,0,0,0,0,0,0,0,
288,-118.9,-33.73,-57.29,-80.06,-106.7,-112.7,-59.4,21.22,-104.9,-27.61,-78.31,-14.36,-47.61,-55.25,-40.06,-52.16,0,0,0,0,0,0,0,0,0,0,0,0,0,0,0,0,
289,-103.5,-18.68,-69.13,-92.63,-91.08,-109.8,-65.96,32.04,-88.24,-18.59,-74.54,-13.52,-45.77,-55.72,-45.46,-43.74,0,0,0,0,0,0,0,0,0,0,0,0,0,0,0,0,
290,-102.4,-8.957,-58.72,-13.9,-92.57,-107.2,-78.67,21.15,-33.35,-17.21,-65.22,-12.36,-27.5,-49.8,-41.62,-24.61,0,0,0,0,0,0,0,0,0,0,0,0,0,0,0,0,
291,-107.9,10.48,-40.99,-22.35,-98.89,-81.91,-52.74,11.28,-20.84,-1.04,-46.08,12.69,2.186,-30.69,-9.209,-1.102,0,0,0,0,0,0,0,0,0,0,0,0,0,0,0,0,
292,-78.93,50.45,-22.84,-48.44,-68.86,-56.82,-22.23,24.77,-22.59,18.07,-37.82,41.75,13.63,-21.79,5.06,0.6874,0,0,0,0,0,0,0,0,0,0,0,0,0,0,0,0,
293,-42.31,71.64,-0.7576,1.39,-53.27,-59.68,-24.9,37.55,-30.31,8.808,-46.22,50.39,7.978,-24.56,1.422,-4.258,0,0,0,0,0,0,0,0,0,0,0,0,0,0,0,0,
294,-38.74,63.04,17.32,4.776,-65.01,-59.24,-16.29,44.81,-27.72,2.719,-41.53,57.16,8.343,-25.26,10.56,-0.2565,0,0,0,0,0,0,0,0,0,0,0,0,0,0,0,0,
295,-37.35,61.95,24.89,-32.66,-50.29,-34.82,12.82,51.35,-3.552,17.64,-26.03,62.07,6.159,-33.45,5.507,-5.664,0,0,0,0,0,0,0,0,0,0,0,0,0,0,0,0,
296,-19.37,68.95,11.64,-14.71,-38.77,-16.37,26.06,48.18,-0.85,22.02,-14.91,57.26,-0.5097,-37.36,-8.834,-7.637,0,0,0,0,0,0,0,0,0,0,0,0,0,0,0,0,
297,-10.4,64.16,-11.68,3.207,-44.29,-13.93,29.89,48.74,-7.401,23.94,4.442,60.87,6.417,-21.78,2.664,10.8,0,0,0,0,0,0,0,0,0,0,0,0,0,0,0,0,
298,-16.37,61.6,-12.89,-4.294,-36.9,-12.35,28.83,62.84,-17.72,30.35,12.8,59.49,9.245,-17.45,7.378,13.69,0,0,0,0,0,0,0,0,0,0,0,0,0,0,0,0,
299,-22.92,64.42,-11.89,17.79,-50.92,-12.27,19.67,74.59,-47.06,21.67,-1.095,38.68,-0.4218,-31.14,-7.149,-2.407,0,0,0,0,0,0,0,0,0,0,0,0,0,0,0,0,
300,-19.17,57.17,-6.358,49.18,-64.09,-25.61,18.62,71.38,-24.26,13.43,1.167,28.74,-0.0869,-36.73,1.119,2.644,0,0,0,0,0,0,0,0,0,0,0,0,0,0,0,0,
301,-17.38,44.07,48.74,53.61,-33.12,-46.98,15.53,56.47,26.43,14.24,7.962,25.5,-3.855,-41.01,13.28,7.239,0,0,0,0,0,0,0,0,0,0,0,0,0,0,0,0,
302,-33.51,34.21,90.62,36.78,-26.57,-45.87,10.79,52.22,10.72,16.37,-1.775,9.536,-14.19,-42.55,0.5969,-11.7,0,0,0,0,0,0,0,0,0,0,0,0,0,0,0,0,
303,-41.97,30.66,52.57,13.35,-52.21,-28.75,16.41,56.14,-5.4,18.95,7.107,10.66,-3.508,-28.72,-4.118,-12.68,0,0,0,0,0,0,0,0,0,0,0,0,0,0,0,0,
304,-22.53,34.7,2.696,7.779,-46.19,-26.59,3.534,39.27,0.2966,7.306,22,32.56,8.948,-21.78,6.82,4.015,0,0,0,0,0,0,0,0,0,0,0,0,0,0,0,0,
305,5.788,45.4,-11.44,10.34,-32.45,-14.51,-13.32,26.91,-28.41,3.483,20.2,45.79,10.62,-22.72,17.26,5.172,0,0,0,0,0,0,0,0,0,0,0,0,0,0,0,0,
306,23.33,58.42,-10.12,3.698,-34.34,-0.5767,-5.196,38.95,-21.06,23.55,34.72,47.59,16.62,-13.28,32.09,3.666,0,0,0,0,0,0,0,0,0,0,0,0,0,0,0,0,
307,20.66,60.7,11.47,22.17,-33.26,-36.45,-20.11,35.47,23.76,20.87,47.39,35.29,7.808,-8.681,34.02,1.644,0,0,0,0,0,0,0,0,0,0,0,0,0,0,0,0,
308,8.34,50.78,34.65,45.87,-43.47,-70.14,-54.68,23.74,11,7.697,20.35,8.19,-11.05,-13.17,6.705,-12.88,0,0,0,0,0,0,0,0,0,0,0,0,0,0,0,0,
309,-4.489,39.54,17.98,20.24,-66.52,-56.79,-56.52,31.28,-36.98,18.41,-15.76,-18.56,-14.69,-16.17,-24.72,-27.23,0,0,0,0,0,0,0,0,0,0,0,0,0,0,0,0,
310,-27.88,26.47,0.6946,-0.0741,-75.21,-58.22,-56.84,34.42,-64.52,13.37,-30.58,-39.06,-26.03,-26.79,-40.33,-42.67,0,0,0,0,0,0,0,0,0,0,0,0,0,0,0,0,
311,-43.62,14.47,31.66,5.611,-70.1,-72.79,-76.31,25.34,-48.99,-4.612,-25.18,-46.82,-47.54,-42.01,-47.48,-56.74,0,0,0,0,0,0,0,0,0,0,0,0,0,0,0,0,
312,-34.73,9.704,50.34,-37.39,-71.55,-57.61,-73.74,12.04,-18.6,-8.751,-11.89,-37.72,-48.73,-45.2,-51.79,-48.69,0,0,0,0,0,0,0,0,0,0,0,0,0,0,0,0,
313,-19.58,7.741,16.03,-72.29,-72.79,-45.47,-48.56,4.62,-40.28,-25.64,-5.023,-24.24,-39.94,-38.88,-46.99,-33.56,0,0,0,0,0,0,0,0,0,0,0,0,0,0,0,0,
314,-9.436,4.378,3.708,-10.97,-56.92,-46.97,-34.26,22.06,-53.41,-37.86,1.828,-17.98,-38.34,-37.18,-36.43,-32.76,0,0,0,0,0,0,0,0,0,0,0,0,0,0,0,0,
315,-13.33,-1.134,40.98,54.77,-49.11,-35.09,-37.81,38.14,-7.924,-19.34,15.81,-11.81,-32.1,-39.72,-28.19,-27.02,0,0,0,0,0,0,0,0,0,0,0,0,0,0,0,0,
316,-20.41,2.811,63.34,52.61,-61.2,-25.53,-42.03,32.74,9.262,-11.44,32.46,6.813,-22.83,-38.11,-14.23,-9.77,0,0,0,0,0,0,0,0,0,0,0,0,0,0,0,0,
317,-8.809,16.36,53.89,32.61,-58.38,-35.32,-41.47,32.76,-6.482,-20.83,43.54,16.17,-23.45,-38.44,2.892,-0.6228,0,0,0,0,0,0,0,0,0,0,0,0,0,0,0,0,
318,-4.813,17.31,45.51,9.044,-57.06,-46.02,-39.78,38.84,-24.51,-14.29,42.94,9.613,-15.6,-34.23,16.05,10.48,0,0,0,0,0,0,0,0,0,0,0,0,0,0,0,0,
319,-8.061,22.21,42.76,-13.28,-73.9,-37.03,-22.71,48.77,-46.73,-2.861,49.35,29.06,11.47,-14.24,28.4,27.83,0,0,0,0,0,0,0,0,0,0,0,0,0,0,0,0,
320,10.36,45.36,36.62,7.849,-55.66,-18.83,3.689,69.13,-19.01,-5.3,57.87,47.54,15.03,-10.03,14.3,18.1,0,0,0,0,0,0,0,0,0,0,0,0,0,0,0,0,
321,12.28,46.98,27.41,34.5,-44.47,-24.58,11.51,70.94,9.625,-10.08,33.73,16.28,-14.77,-29.81,-26.6,-2.961,0,0,0,0,0,0,0,0,0,0,0,0,0,0,0,0,
322,-13.65,32.11,3.282,0.4185,-109.2,-47.56,3.357,50.75,-20.36,-4.778,8.591,-7.547,-26.24,-32.88,-41.85,1.556,0,0,0,0,0,0,0,0,0,0,0,0,0,0,0,0,
323,-17.43,37.82,-13,-18.09,-122.4,-47.21,-9.595,41.46,-12.33,4.706,22.24,6.324,-16.85,-24.64,-33.99,2.531,0,0,0,0,0,0,0,0,0,0,0,0,0,0,0,0,
324,3.826,45.04,43.11,47.89,-15,-22.79,-9.031,44.02,23.74,0.4884,43.63,20.69,-13.07,-26.79,-25.03,1.619,0,0,0,0,0,0,0,0,0,0,0,0,0,0,0,0,
325,34.34,48.91,113,81.05,60.47,12.8,30.8,45.72,24.6,-8.631,58.99,44.62,6.042,-16.74,6.516,36.88,0,0,0,0,0,0,0,0,0,0,0,0,0,0,0,0,
326,67.87,68.84,88.97,38.38,69.44,62.83,71.46,48.1,47.59,2.794,75.52,74.09,36.64,8.841,37.16,68.1,0,0,0,0,0,0,0,0,0,0,0,0,0,0,0,0,
327,78.73,71.09,66.64,36.7,105.4,85.4,57.57,39.97,64.12,4.738,82.15,79.87,36.07,21.79,38.08,65.01,0,0,0,0,0,0,0,0,0,0,0,0,0,0,0,0,
328,70.15,33.43,127.7,62.43,143.1,53.37,17.26,10.79,42.51,-28.79,91.8,76.69,9.822,12.08,40.57,62.01,0,0,0,0,0,0,0,0,0,0,0,0,0,0,0,0,
329,70.51,-0.0199,152.1,60.67,146.4,34.8,-1.218,-6.881,62.36,-42.98,106.1,73.76,-10.27,-5.814,41,57.14,0,0,0,0,0,0,0,0,0,0,0,0,0,0,0,0,
330,74.1,-1.903,120.2,71.14,141.4,57.59,-1.873,2.409,100.4,-21.25,108,69.64,-17.77,-10.21,21.68,44.95,0,0,0,0,0,0,0,0,0,0,0,0,0,0,0,0,
331,70.29,12.68,110.3,62.36,134.4,66.37,-2.904,-5.168,97.59,-14.44,116.4,72.91,-12.83,-0.2796,17.62,53.27,0,0,0,0,0,0,0,0,0,0,0,0,0,0,0,0,
332,72.55,34.66,93.06,43.76,136.9,54.95,-7.054,-23.81,78.58,-20.63,120.6,69.25,-5.083,6.798,29.32,71.88,0,0,0,0,0,0,0,0,0,0,0,0,0,0,0,0,
333,71.79,49.48,74.09,75.96,143.6,45.7,-11.08,-14.94,60.26,-20.24,88.78,58.53,-8.969,7.743,24.4,75.28,0,0,0,0,0,0,0,0,0,0,0,0,0,0,0,0,
334,48.59,44.27,75.92,62.6,129.1,37.55,-14.78,-10.01,60.65,-22.22,63.11,58.63,-13.59,4.87,15.81,66.88,0,0,0,0,0,0,0,0,0,0,0,0,0,0,0,0,
335,25.8,40.26,35.31,4.911,108.7,35.49,-19.16,-21.45,73.7,-17.9,66.18,50.63,-12.14,-2.46,10.56,54.16,0,0,0,0,0,0,0,0,0,0,0,0,0,0,0,0,
336,16.75,44.83,-1.418,31.99,102.7,28.68,-20.67,-24.7,65.7,-13.97,56.1,26.3,-12.08,-3.055,-3.69,49.07,0,0,0,0,0,0,0,0,0,0,0,0,0,0,0,0,
337,4.109,45.19,56.65,43.62,110.1,15.37,-26.22,-34.47,52.57,-22.29,45.69,15.64,-8.187,3.715,-8.29,55.1,0,0,0,0,0,0,0,0,0,0,0,0,0,0,0,0,
338,-4.378,44.79,104.8,-25.18,113.5,13.71,-47.84,-46.12,44.48,-24.64,57.64,17.11,-10.11,0.1272,-0.6015,54.74,0,0,0,0,0,0,0,0,0,0,0,0,0,0,0,0,
339,-7.081,33.7,48.28,-21.42,90.36,9.551,-65.32,-51.25,36.7,-30.8,57.43,9.274,-24.03,-7.952,-1.697,54.73,0,0,0,0,0,0,0,0,0,0,0,0,0,0,0,0,
340,-12.14,15.78,-3.27,3.2,67.48,-2.394,-55.72,-68.26,21.35,-48.53,41.38,1.832,-23.62,-6.508,-3.048,69.17,0,0,0,0,0,0,0,0,0,0,0,0,0,0,0,0,
341,-1.565,19.72,36.14,-59.15,81.06,-8.726,-36,-60.91,-25.95,-43.94,32,1.359,-17.36,-10.06,-0.1898,75.43,0,0,0,0,0,0,0,0,0,0,0,0,0,0,0,0,
342,13.35,23.64,83.44,-45.63,107.9,-4.9,-20.57,-13.52,-39.62,-24.31,28.24,-1.023,-29.64,-23.19,-3.557,64.66,0,0,0,0,0,0,0,0,0,0,0,0,0,0,0,0,
343,13.58,9.24,54.09,47.79,110.4,23.74,-11.71,3.991,27.94,-27.21,34.84,1.768,-36.9,-34.7,-4.267,52.13,0,0,0,0,0,0,0,0,0,0,0,0,0,0,0,0,
344,24.53,9.778,9.97,32.57,96.17,48.44,-17.21,-14.76,73.15,-43.4,51.26,18.29,-26.55,-44.17,1.071,36.44,0,0,0,0,0,0,0,0,0,0,0,0,0,0,0,0,
345,48.17,26.22,55.83,2.872,105.4,35.09,-15.65,-4.008,59.99,-40.67,59.81,37.16,-14.76,-39.11,3.428,26.07,0,0,0,0,0,0,0,0,0,0,0,0,0,0,0,0,
346,57.52,38.6,129.4,40.6,125.9,29.18,-0.7903,20.21,38.17,-15.73,52.74,37.3,-7.307,-18.21,-0.0941,31.43,0,0,0,0,0,0,0,0,0,0,0,0,0,0,0,0,
347,51.42,44.07,101.5,9.038,112.6,40.92,-9.859,2.636,14.84,-1.08,42.55,21.42,-7.317,-7.857,-5.158,37.08,0,0,0,0,0,0,0,0,0,0,0,0,0,0,0,0,
348,43.74,37.4,39.99,-15.05,102.9,37.12,-25.47,-21.21,34.59,-8.188,50.85,20.66,-6.351,-6.841,1.014,41.71,0,0,0,0,0,0,0,0,0,0,0,0,0,0,0,0,
349,47.4,37.78,62.49,39.05,128.5,46.12,-4.146,-4.53,84.13,-1.454,80.11,42.75,13.33,6.57,26.81,60.9,0,0,0,0,0,0,0,0,0,0,0,0,0,0,0,0,
350,71.65,71.3,109.6,17.74,148.5,77.82,35.87,26.51,92.89,25.15,126.6,75.67,53.79,40.87,78.67,100.7,0,0,0,0,0,0,0,0,0,0,0,0,0,0,0,0,
351,113.8,116.1,115.7,9.405,164.5,103.3,67.18,52.19,116.1,38.92,174.3,103.8,87.17,76.26,131,136.2,0,0,0,0,0,0,0,0,0,0,0,0,0,0,0,0,
352,132.7,122.5,109.6,115.5,169.2,110.6,62.17,56.74,128.5,30.97,155.6,78.5,65.54,62.02,105.4,111,0,0,0,0,0,0,0,0,0,0,0,0,0,0,0,0,
353,84.69,74.26,84.66,104.9,112.7,76.98,10.12,19.36,35.9,9.457,61.37,4.879,6.257,9.65,12.02,40.22,0,0,0,0,0,0,0,0,0,0,0,0,0,0,0,0,
354,26.37,22.37,20.84,-28.21,43.65,32.51,-18.35,-6.187,-14.19,-12,-2.877,-23.69,-16.83,-9.675,-32.64,8.845,0,0,0,0,0,0,0,0,0,0,0,0,0,0,0,0,
355,29.22,12.77,-25.47,-41.38,43.11,44.52,5.384,13.63,46.13,-20.31,3.561,5.812,-3.771,-1.979,-15.41,15.64,0,0,0,0,0,0,0,0,0,0,0,0,0,0,0,0,
356,52.43,19.47,9.714,27.34,84.67,70.24,16.5,27.31,32.67,-16.41,18.34,20.25,6.698,-3.228,-4.655,15.03,0,0,0,0,0,0,0,0,0,0,0,0,0,0,0,0,
357,60.67,22.29,88.61,56.38,110.5,55.38,13.57,30.02,-16.57,3.686,21.44,11.97,18.86,5.911,3.1,22.02,0,0,0,0,0,0,0,0,0,0,0,0,0,0,0,0,
358,72.85,33.15,124.4,76.92,109.8,48.79,27.58,43.7,36.06,26.2,36.04,17.61,30.41,24.69,23.21,39,0,0,0,0,0,0,0,0,0,0,0,0,0,0,0,0,
359,75.35,45.15,98.83,82.47,98.9,65.35,35.54,44.72,67.9,27.99,51.39,35.83,35.74,32.7,36.46,45.3,0,0,0,0,0,0,0,0,0,0,0,0,0,0,0,0,
360,71.6,57.65,54.14,55.11,90.44,71.24,36.86,29.11,26.5,31.99,47.03,39.57,41.92,37.83,38.84,48.07,0,0,0,0,0,0,0,0,0,0,0,0,0,0,0,0,
361,81.75,68.83,42.61,19.75,85.16,69.84,37.91,15.28,26.59,38.45,40.93,21.04,37.15,38.92,36.01,47.82,0,0,0,0,0,0,0,0,0,0,0,0,0,0,0,0,
362,76.47,58.5,65.92,-19.99,83.75,59.57,28.16,12.08,51.92,19.98,51.36,9.826,28.57,30.21,38.13,43.39,0,0,0,0,0,0,0,0,0,0,0,0,0,0,0,0,
363,59.86,44.47,61.66,-10.21,88.08,50.99,31.31,23.7,56.1,17,58.69,24.4,36.67,25.79,54.32,47.46,0,0,0,0,0,0,0,0,0,0,0,0,0,0,0,0,
364,68.17,46.85,36.11,57.73,99.53,65.97,34.87,35.08,65.15,37.96,54.67,33.73,39.08,26.78,66.45,48.42,0,0,0,0,0,0,0,0,0,0,0,0,0,0,0,0,
365,69.12,38.38,42.95,57.84,108.7,59.98,1.017,27.84,67.9,24.86,53.27,10.67,22.06,20.69,55.46,33.67,0,0,0,0,0,0,0,0,0,0,0,0,0,0,0,0,
366,45.05,20.97,54.98,13.7,99.76,24.47,-23.39,5.344,53.81,2.26,49.98,-18.58,9.562,14.1,36.34,23.3,0,0,0,0,0,0,0,0,0,0,0,0,0,0,0,0,
367,42.36,19.93,51.94,48.29,84.85,26.77,-6.095,-11.45,34.64,9.121,42.09,-22.66,3.702,12.45,29.42,22.72,0,0,0,0,0,0,0,0,0,0,0,0,0,0,0,0,
368,53.95,16.35,45.31,51.16,79.04,52.33,4.821,-9.902,28.5,8.34,41.08,-18.87,-2.983,-1.692,28.3,13.33,0,0,0,0,0,0,0,0,0,0,0,0,0,0,0,0,
369,43.69,0.3802,19.62,-35.65,71.88,47.64,-2.04,-9.646,42.31,-3.98,45.2,-25.07,-1.858,-27.95,23.71,1.232,0,0,0,0,0,0,0,0,0,0,0,0,0,0,0,0,
370,30.83,-10.8,0.7197,-31.48,61.28,32.48,-8.995,-20.59,25.83,-6.756,40.01,-31.31,-4.944,-44.04,14.49,-3.066,0,0,0,0,0,0,0,0,0,0,0,0,0,0,0,0,
371,25.73,-17.86,10.49,47.55,56.92,25.53,-15.03,-26.77,-7.343,-9.154,22.27,-42.22,-18.19,-47.76,-2.743,-8.769,0,0,0,0,0,0,0,0,0,0,0,0,0,0,0,0,
372,16.91,-14.97,17.15,42.38,69.28,26.04,-4.36,-29.11,9.255,-3.494,15.16,-48.96,-11.02,-40.8,-6.772,-5.948,0,0,0,0,0,0,0,0,0,0,0,0,0,0,0,0,
373,23.48,4.464,29.72,26.89,93.56,44.61,15.36,-24.82,30.44,10.52,36.08,-23.93,17.3,-19.66,18.44,9.423,0,0,0,0,0,0,0,0,0,0,0,0,0,0,0,0,
374,49.75,25.6,56.24,63.91,98.32,61.44,20.74,-12.89,29.11,13.05,61.41,6.399,34.46,-1.038,32.37,11.75,0,0,0,0,0,0,0,0,0,0,0,0,0,0,0,0,
375,63.46,46.51,54.17,27,86.66,55.59,30.84,-21.84,41.6,20.7,66.15,3.739,42.2,6.168,18.15,11.66,0,0,0,0,0,0,0,0,0,0,0,0,0,0,0,0,
376,57.22,65.41,29.07,-65.71,86.04,49.27,48.71,-34.57,40.7,45.18,59.83,-14.86,51.52,12.53,12.13,29.16,0,0,0,0,0,0,0,0,0,0,0,0,0,0,0,0,
377,52.42,70.61,29.12,-40.62,81.65,47.83,42.01,-9.635,32.01,53.18,53.34,-28.42,47.67,15.27,9.334,34.3,0,0,0,0,0,0,0,0,0,0,0,0,0,0,0,0,
378,47.14,69.66,45.52,75.43,71.59,31.55,21.73,8.476,42.4,35.48,43.17,-34.88,31.73,10.86,-9.665,20.62,0,0,0,0,0,0,0,0,0,0,0,0,0,0,0,0,
379,30.79,69.45,44.46,114.2,81.87,22.11,22.46,-15.68,44.38,18.72,40.97,-29.4,28.62,11.83,-18.58,17.99,0,0,0,0,0,0,0,0,0,0,0,0,0,0,0,0,
380,25.67,66.14,41.44,73.07,97.01,35.26,27.9,-30.61,48.04,12.85,54.9,-20.43,40.43,19.94,-10.18,22.72,0,0,0,0,0,0,0,0,0,0,0,0,0,0,0,0,
381,40.57,56.01,44.3,36.89,94.8,36.2,13.24,-32.19,49.54,19.98,60.63,-22.59,46.39,21.28,-5.59,23.19,0,0,0,0,0,0,0,0,0,0,0,0,0,0,0,0,
382,51.18,38.25,29.36,16.8,91.83,35.46,7.428,-52.85,34.43,31.61,59.13,-25.26,46.1,15.57,-0.1522,22.64,0,0,0,0,0,0,0,0,0,0,0,0,0,0,0,0,
383,60.81,30.65,5.912,12.11,103.2,60.64,21.65,-62.47,50.54,21.24,73.83,-13.56,49.79,13.26,11.25,18.89,0,0,0,0,0,0,0,0,0,0,0,0,0,0,0,0,
384,74.86,36.39,-4.415,7.963,115.5,65.81,19.35,-57.64,72.69,7.911,80.82,-2.797,52.19,10.95,13.87,20.85,0,0,0,0,0,0,0,0,0,0,0,0,0,0,0,0,
385,73.95,38.31,13.27,1.904,110.7,45.72,8.746,-51.11,52.26,27.42,69.64,-7.853,58.23,9.774,8.485,31.35,0,0,0,0,0,0,0,0,0,0,0,0,0,0,0,0,
386,69.64,47.36,47.31,43.65,101,51.98,10.91,-5.104,38.54,50.59,69.92,-15.84,72.33,19.33,9.819,32.41,0,0,0,0,0,0,0,0,0,0,0,0,0,0,0,0,
387,75.06,63.33,44.06,89.7,110.9,65.34,7.113,35.93,53.93,48.29,75.09,-12.55,75.21,27.21,20.14,30.9,0,0,0,0,0,0,0,0,0,0,0,0,0,0,0,0,
388,73.03,65.41,33.08,64.53,130,63.22,9.764,4.75,85.83,38.07,81.39,7.904,72.18,26.76,33.3,40.84,0,0,0,0,0,0,0,0,0,0,0,0,0,0,0,0,
389,69.08,61.18,58.73,24.71,130.1,66.98,17.53,-24.47,114.4,31.16,97.26,31.8,82.02,31.47,42.52,44.34,0,0,0,0,0,0,0,0,0,0,0,0,0,0,0,0,
390,72.69,49.63,41.73,18.22,117.1,58.63,-6.444,-12.85,92.16,26.17,90.31,30.12,83.14,32.85,40.39,37.75,0,0,0,0,0,0,0,0,0,0,0,0,0,0,0,0,
391,68.01,27.97,-1.696,29.99,110.8,31.44,-26.77,-27.41,59.62,20.39,65.91,17.7,65.38,24.53,29.11,37.23,0,0,0,0,0,0,0,0,0,0,0,0,0,0,0,0,
392,53.83,19.07,23.08,55.65,102.7,21.32,-16.39,-54.73,71,16.68,63.95,20.69,55.64,24.19,20.49,36.47,0,0,0,0,0,0,0,0,0,0,0,0,0,0,0,0,
393,40.43,10.43,44.52,50.01,87.07,20.68,-22.44,-54.37,66.1,11.4,59.66,12.4,51.37,23.98,14.55,31.57,0,0,0,0,0,0,0,0,0,0,0,0,0,0,0,0,
394,26.01,-15.78,5.38,-1.614,78.56,6.801,-44.74,-63.17,28.89,-17.8,31.1,-12.47,30.33,7.792,0.9214,29.04,0,0,0,0,0,0,0,0,0,0,0,0,0,0,0,0,
395,11,-27.8,-20.25,-35.08,73.31,-0.8133,-56.09,-85.94,11.5,-40.79,14.77,-17.84,9.712,-4.045,-10.33,22.64,0,0,0,0,0,0,0,0,0,0,0,0,0,0,0,0,
396,5.441,-15.05,-2.146,-25.41,64.34,2.678,-56.01,-85.91,7.066,-15.96,24.92,-9.719,12.24,-0.0722,-4.613,15.29,0,0,0,0,0,0,0,0,0,0,0,0,0,0,0,0,
397,12.2,-6.734,22.42,7.734,66.17,0.1341,-37.48,-81.61,14.05,0.3808,37.73,-12.66,16.85,-1.186,-0.8053,9.293,0,0,0,0,0,0,0,0,0,0,0,0,0,0,0,0,
398,15.75,-11.48,14.89,27.43,74.74,0.1938,-27.39,-88.22,37.72,-18.72,38.87,-22.74,5.601,-8.614,-12.05,-6.344,0,0,0,0,0,0,0,0,0,0,0,0,0,0,0,0,
399,11.24,-15.66,1.631,8.785,74.75,6.489,-44.5,-70.32,23.01,-17.09,33.5,-34.72,-1.025,-5.511,-18,-17.98,0,0,0,0,0,0,0,0,0,0,0,0,0,0,0,0,
400,18.79,-16.5,25.08,-5.146,79.29,9.542,-41.61,-47.94,-15.42,-2.634,31.62,-42.59,3.926,-3.363,-12.04,-12.36,0,0,0,0,0,0,0,0,0,0,0,0,0,0,0,0,
401,36.84,-23.08,36.07,-7.597,99.64,17.91,-22.28,-62.73,11.61,-2.022,36.06,-38.51,4.559,-13.38,-1.244,-6.182,0,0,0,0,0,0,0,0,0,0,0,0,0,0,0,0,
402,42.29,-30.73,29.02,-28.2,118.4,29.28,-35.6,-67.35,71.16,4.416,46.9,-31.37,4.731,-16.22,14.7,-2.047,0,0,0,0,0,0,0,0,0,0,0,0,0,0,0,0,
403,40.2,-27.78,51.28,-9.178,125.2,37.66,-46.71,-39.96,79.91,6.22,58.83,-28.95,10.32,-11.02,21.25,8.308,0,0,0,0,0,0,0,0,0,0,0,0,0,0,0,0,
404,38.58,-19.07,49.9,62.19,126.4,44.17,-17.05,-28.48,61.36,-0.8636,50.05,-34.46,11.64,-12.98,7.563,16.5,0,0,0,0,0,0,0,0,0,0,0,0,0,0,0,0,
405,26.11,-8.504,11.81,89.22,111.2,30.43,1.008,-28.37,41,6.613,17.62,-51.27,12.89,-7.44,-10.53,16.33,0,0,0,0,0,0,0,0,0,0,0,0,0,0,0,0,
406,17.35,3.781,16.29,49.68,78.12,16.4,-18.57,-24.69,11.44,16.56,2.901,-58.45,19.91,7.755,-19.37,9.433,0,0,0,0,0,0,0,0,0,0,0,0,0,0,0,0,
407,27.67,5.455,57.59,2.059,67.74,31.39,-27.23,-33.57,6.595,15.05,17.73,-48.01,18.56,7.6,-21.13,0.4698,0,0,0,0,0,0,0,0,0,0,0,0,0,0,0,0,
408,25.28,-5.867,69.74,-21.59,84.46,30.32,-13.15,-43.67,22.34,13.16,11.18,-56.92,6.439,-0.9029,-27.19,-5.086,0,0,0,0,0,0,0,0,0,0,0,0,0,0,0,0,
409,-5.291,-20.47,36.35,-21.4,77.47,11.9,-8.241,-50.7,2.736,16.13,-24.31,-83.35,-1.595,-0.5072,-37.96,-8.126,0,0,0,0,0,0,0,0,0,0,0,0,0,0,0,0,
410,-26.87,-34.32,6.839,-6.034,53.8,21.58,-14.84,-52.71,-27.26,17.85,-31.26,-83.79,-4.959,0.2039,-36.8,-10.34,0,0,0,0,0,0,0,0,0,0,0,0,0,0,0,0,
411,-18.07,-35.85,28.06,27.79,62.29,18.16,-19.68,-31.87,0.3986,10.62,-6.902,-69.82,-8.588,-1.199,-32.29,-13.75,0,0,0,0,0,0,0,0,0,0,0,0,0,0,0,0,
412,-4.69,-23.29,54.24,48.56,74.7,-14.13,-25.75,-19.21,39.02,3.489,-1.852,-69.18,-12.44,-3.035,-43.22,-20.07,0,0,0,0,0,0,0,0,0,0,0,0,0,0,0,0,
413,-10.41,-24.31,39.51,22.25,53.52,-17.59,-34.05,-40.06,14.14,-0.5092,-12.17,-65.23,-21.89,-8.101,-48.44,-26.06,0,0,0,0,0,0,0,0,0,0,0,0,0,0,0,0,
414,-12.47,-39.09,27.06,15.99,46.97,-0.2492,-25.36,-56.92,-7.035,-14.88,-0.5477,-52.66,-31.92,-8.379,-34.11,-31.16,0,0,0,0,0,0,0,0,0,0,0,0,0,0,0,0,
415,8.915,-34.02,37.14,41.13,75.04,5.795,2.115,-58.18,24.46,-17.98,20.54,-45.36,-29.43,-2.696,-20.47,-31.26,0,0,0,0,0,0,0,0,0,0,0,0,0,0,0,0,
416,22.41,-15.96,40.09,11.02,85.5,13.62,6.796,-62.8,28.65,6.585,21.48,-39.59,-19.29,3.522,-10.63,-21.5,0,0,0,0,0,0,0,0,0,0,0,0,0,0,0,0,
417,18.42,-10.18,43.83,-16.15,74.79,22.79,-9.248,-59.42,17.5,24.71,13.82,-30.88,-8.182,11.93,-1.135,-11.62,0,0,0,0,0,0,0,0,0,0,0,0,0,0,0,0,
418,20.08,-5.912,58.58,25.42,73.96,22.65,4.023,-45.43,50.93,25.59,14.3,-24.98,4.303,13.83,-1.894,-9.742,0,0,0,0,0,0,0,0,0,0,0,0,0,0,0,0,
419,15.77,0.6287,55.51,41.5,73.87,20.49,21.67,-45.34,48.49,19.89,15.82,-24.85,7.73,3.947,-5.904,-14.78,0,0,0,0,0,0,0,0,0,0,0,0,0,0,0,0,
420,5.261,-2.488,38.68,24.14,59.85,21.29,7.751,-60.08,-3.62,4.64,13.31,-30.78,-2.375,-3.492,-9.013,-24.59,0,0,0,0,0,0,0,0,0,0,0,0,0,0,0,0,
421,5.554,-8.239,26.23,28.85,37.89,26.87,7.668,-68.47,-1.336,-0.1078,3.241,-45.68,-10.73,-2.636,-23.72,-29.92,0,0,0,0,0,0,0,0,0,0,0,0,0,0,0,0,
422,-0.9191,-11.8,9.487,19.77,30.83,35.85,27.54,-59.11,18.77,11.39,-14.22,-61.56,-7.215,-0.3206,-35.5,-27.41,0,0,0,0,0,0,0,0,0,0,0,0,0,0,0,0,
423,-9.901,-12.65,29.38,7.932,48.03,24.29,24.81,-38.87,-13.65,15.79,-21.26,-57.84,-2.098,-0.4464,-24.64,-26.98,0,0,0,0,0,0,0,0,0,0,0,0,0,0,0,0,
424,-6.426,-7.594,79.44,17.44,58.61,-9.237,16.56,-35.74,-28.86,19.84,-12.84,-43.42,-7.737,-2.6,-11.82,-32.04,0,0,0,0,0,0,0,0,0,0,0,0,0,0,0,0,
425,-13.19,-12.8,52.31,0.8355,54.22,-11.59,22.52,-48.38,-9.883,21.16,-5.348,-44.28,-15.18,-2.496,-16.36,-39.04,0,0,0,0,0,0,0,0,0,0,0,0,0,0,0,0,
426,-19.21,-27.12,7.397,-15,65.09,21.1,23.58,-34.96,-19.99,6.286,-2.269,-46.52,-10.79,-1.608,-26.75,-46.79,0,0,0,0,0,0,0,0,0,0,0,0,0,0,0,0,
427,-0.1151,-18,59.87,28.08,90.31,38.44,27.26,-10.87,-21.21,10.48,3.561,-36.99,-2.837,-4.122,-30.62,-52.6,0,0,0,0,0,0,0,0,0,0,0,0,0,0,0,0,
428,16.08,9.259,91.45,64.86,99.07,55.55,47.21,-9.719,24.66,37.7,12.07,-33.18,1.956,-1.796,-22.45,-49.07,0,0,0,0,0,0,0,0,0,0,0,0,0,0,0,0,
429,21.27,25.88,57.64,43.37,89.73,85.41,65.54,1.594,44.6,40.81,23.63,-29.75,8.388,8.896,-1.661,-36.34,0,0,0,0,0,0,0,0,0,0,0,0,0,0,0,0,
430,35.67,33.9,71.61,48.89,95.97,79.13,69.08,14.12,22.97,27.87,36.83,-20.69,6.44,16.04,19.23,-28.26,0,0,0,0,0,0,0,0,0,0,0,0,0,0,0,0,
431,36.84,27.37,76.4,85.9,106.1,40.49,53.32,-9.336,24.98,25.57,38.4,-26.29,-3.961,17.41,29.7,-23.27,0,0,0,0,0,0,0,0,0,0,0,0,0,0,0,0,
432,11.61,1.19,35,41.55,78.94,12.04,22.57,-21.87,36.21,23.75,28.47,-38.04,2.103,23.67,33.9,-9.093,0,0,0,0,0,0,0,0,0,0,0,0,0,0,0,0,
433,-0.8265,-7.566,54.38,-16.09,60.85,-0.3506,10.57,-10.17,26.43,20.33,28.88,-38.26,15.82,31.54,34.71,-2.652,0,0,0,0,0,0,0,0,0,0,0,0,0,0,0,0,
434,4.44,6.034,89.08,26.31,87.58,2.201,24.23,-11.41,38.82,16.71,40.19,-35.87,10.15,28.81,30.24,-11.04,0,0,0,0,0,0,0,0,0,0,0,0,0,0,0,0,
435,-2.948,8.634,63.85,50.3,94.02,18.5,32.08,4.357,57.7,16.75,45.49,-25.72,1.622,21.8,25.36,-10.68,0,0,0,0,0,0,0,0,0,0,0,0,0,0,0,0,
436,-5.457,8.836,43.11,-2.731,73.25,34.58,39.92,26.79,27.29,24.43,43.55,-11.73,-0.6512,17.51,18.59,-11.17,0,0,0,0,0,0,0,0,0,0,0,0,0,0,0,0,
437,3.774,12.53,28.45,-21.98,69.62,34.41,52.35,0.8164,-1.606,18.17,36.49,-16.75,-9.507,9.102,4.669,-24.51,0,0,0,0,0,0,0,0,0,0,0,0,0,0,0,0,
438,-6.306,7.355,-1.159,3.17,65.72,24.27,47.09,-21.03,3.679,10.28,32.14,-21.44,-2.962,6.611,-2.067,-22.33,0,0,0,0,0,0,0,0,0,0,0,0,0,0,0,0,
439,-11.24,14.28,12.39,36.18,58.09,30.96,46.23,-1.922,-7.636,30.18,42.24,-14.24,19.82,18.24,4.459,-11.1,0,0,0,0,0,0,0,0,0,0,0,0,0,0,0,0,
440,11.18,30.08,56.13,68.47,72.08,44.39,59.01,-1.867,7.977,47.47,56.89,-15.74,23.75,23.72,11.2,-16.38,0,0,0,0,0,0,0,0,0,0,0,0,0,0,0,0,
441,23.54,28.28,67.72,61.3,97.31,43.88,49.46,-13.4,79.03,42.9,60.31,-5.759,18.76,18.63,20.85,-18.15,0,0,0,0,0,0,0,0,0,0,0,0,0,0,0,0,
442,23.42,22.09,56.54,31.49,106.9,48.66,35.48,-1.199,86.93,34.38,52.13,14.78,22.16,16.35,33.82,-8.594,0,0,0,0,0,0,0,0,0,0,0,0,0,0,0,0,
443,30.38,20.52,66.29,21.93,101.6,60.99,47.38,-0.1932,40.27,27.54,51.42,7.976,24.45,15.6,41.27,-0.694,0,0,0,0,0,0,0,0,0,0,0,0,0,0,0,0,
444,36.96,18.83,104.6,23.85,111.1,66.04,58.66,-7.198,55.62,28.32,66.08,4.422,30.91,18.41,50.32,11.56,0,0,0,0,0,0,0,0,0,0,0,0,0,0,0,0,
445,44.03,20.74,102.4,26.28,118.6,70.73,57.81,5.414,76.41,26.49,66.17,25.56,39.94,27.95,61.74,24.6,0,0,0,0,0,0,0,0,0,0,0,0,0,0,0,0,
446,50.07,19.82,32.01,15.59,90.69,73.72,58.61,5.157,51.25,16.47,55.81,26.78,45.28,37.04,70.78,37.24,0,0,0,0,0,0,0,0,0,0,0,0,0,0,0,0,
447,50.25,21.95,14.62,6.593,82.48,67.28,56.37,-11.03,40.8,18.58,64.88,10.44,53.08,46.46,72.44,52.96,0,0,0,0,0,0,0,0,0,0,0,0,0,0,0,0,
448,47.99,29.53,76.67,40.79,109.2,53.78,52.42,-5.006,31.57,16.03,58.7,-0.6427,50.45,54.53,49.43,48.5,0,0,0,0,0,0,0,0,0,0,0,0,0,0,0,0,
449,34.29,20.13,69.52,65.34,91.79,39.92,53.26,4.466,16.26,1.372,23.14,-23.1,32.35,51.27,18.74,26.29,0,0,0,0,0,0,0,0,0,0,0,0,0,0,0,0,
450,12.03,1.944,5.304,6.561,50.14,28.86,43.23,-11.3,14.86,7.92,8.291,-47.54,18.89,42.52,11.36,13.97,0,0,0,0,0,0,0,0,0,0,0,0,0,0,0,0,
451,0.4275,-1.724,27.13,-59.25,60.71,15.26,21.45,-23,-1.222,23.08,16.48,-51.61,17.63,40.55,7.864,4.133,0,0,0,0,0,0,0,0,0,0,0,0,0,0,0,0,
452,-2.48,-1.093,75.08,-26.2,84.95,15.79,17.54,-9.867,3.271,23.55,17.68,-55.01,19.38,38.92,-6.617,-7.225,0,0,0,0,0,0,0,0,0,0,0,0,0,0,0,0,
453,-9.54,-5.4,47.3,53.03,70.09,38.94,36.02,8.04,18.53,26.86,11.38,-76.78,11.37,27.56,-17.59,-6.803,0,0,0,0,0,0,0,0,0,0,0,0,0,0,0,0,
454,-17.43,-3.554,36.83,72.51,54.63,45.04,48.82,24.66,-30.89,35.14,1.847,-97.55,1.641,14.98,-23.92,-2.602,0,0,0,0,0,0,0,0,0,0,0,0,0,0,0,0,
455,-20.85,0.2926,66.69,28.67,58.92,31.56,39.57,31.65,-53.69,25.6,-12.37,-104.9,3.002,5.793,-27.32,-4.281,0,0,0,0,0,0,0,0,0,0,0,0,0,0,0,0,
456,-31.36,-11.38,33.62,-22.6,43.8,30.81,23.38,5.414,2.593,1.95,-26.71,-115,-4.304,-6.521,-29.92,-11.87,0,0,0,0,0,0,0,0,0,0,0,0,0,0,0,0,
457,-41.8,-19.5,5.727,-14.74,23.81,26.55,31.29,-11.82,14.12,2.027,-27.13,-123.7,-14.65,-10.07,-30,-18.99,0,0,0,0,0,0,0,0,0,0,0,0,0,0,0,0,
458,-32.74,-2.124,61.16,55.82,42.14,11.55,50.32,21.85,-16.36,15.71,-19.91,-116.4,-0.9536,-1.269,-16.42,-15.14,0,0,0,0,0,0,0,0,0,0,0,0,0,0,0,0,
459,-28.69,7.092,82.03,73.45,66.97,7.764,40.35,37.1,-5.631,-1.066,-23.05,-103.9,11.36,0.0081,-0.0332,-8.495,0,0,0,0,0,0,0,0,0,0,0,0,0,0,0,0,
460,-35.41,-0.4081,48.14,15.09,69.55,8.854,22.47,8.852,18.06,-11.92,-18.59,-93.43,8.992,3.281,9.323,-5.404,0,0,0,0,0,0,0,0,0,0,0,0,0,0,0,0,
461,-19.61,9.325,52.24,-7.572,70.34,19.59,23.67,11.98,21.77,10.32,-2.421,-88.38,16.93,23.48,20.47,3.463,0,0,0,0,0,0,0,0,0,0,0,0,0,0,0,0,
462,-0.7878,18.72,67.46,3.876,74.12,49.97,24.8,37.7,26.95,15.52,12.11,-82.48,27.93,41.35,34.83,18.87,0,0,0,0,0,0,0,0,0,0,0,0,0,0,0,0,
463,3.819,8.305,66.31,14.78,88.94,64.12,29.58,44.86,57.94,11.02,49.05,-47.23,40.88,56.98,71.27,51.19,0,0,0,0,0,0,0,0,0,0,0,0,0,0,0,0,
464,26.64,11.57,66,50.43,112.5,63.27,44.6,64.39,93.65,30.25,103.1,7.976,78.44,90.4,139.1,108.2,0,0,0,0,0,0,0,0,0,0,0,0,0,0,0,0,
465,66.19,40.86,57.78,56.77,113.5,96.16,57.54,83.72,99.94,53.63,132,44.64,117.6,125,180.4,146.5,0,0,0,0,0,0,0,0,0,0,0,0,0,0,0,0,
466,86.73,58.92,66.74,37.01,97.9,118.5,65.23,65.16,85.88,62.29,108.5,34.57,109.5,121.5,146.4,115.2,0,0,0,0,0,0,0,0,0,0,0,0,0,0,0,0,
467,59.99,30.07,74.55,56.54,80.37,65.04,45.59,36.68,40.5,37.18,26.3,-32.34,55.75,77.7,71.84,36.45,0,0,0,0,0,0,0,0,0,0,0,0,0,0,0,0,
468,7.265,-15.55,40.48,42.69,57.52,17.73,10.58,19.43,-22.7,0.6927,-39.71,-86.27,10.98,42.61,21.05,-12.54,0,0,0,0,0,0,0,0,0,0,0,0,0,0,0,0,
469,-7.342,-22.99,28.64,1.655,51.22,41.87,9.669,10.13,-35.71,4.927,-28.29,-73.75,7.266,42.62,10.35,-3.372,0,0,0,0,0,0,0,0,0,0,0,0,0,0,0,0,
470,3.341,-13.32,53.03,26.32,61.55,52.36,21.55,19.66,-19.32,11.65,-13.37,-64.87,18.76,52.08,11.08,17.35,0,0,0,0,0,0,0,0,0,0,0,0,0,0,0,0,
471,-7.643,-15.87,45.45,18.7,61.2,30.32,25.22,37.01,-4.106,-5.203,-20.94,-77.26,25.62,61.97,13.78,22.22,0,0,0,0,0,0,0,0,0,0,0,0,0,0,0,0,
472,-12.75,-9.36,27.77,-38.79,53.88,46.49,39.89,40.43,35.96,5.03,1.044,-63.57,33.89,72.78,25.07,23.81,0,0,0,0,0,0,0,0,0,0,0,0,0,0,0,0,
473,-6.55,-3.214,47.45,0.218,52.35,62.77,32.23,39.62,51.08,20.18,12.6,-61.36,37.1,70.84,25.95,22.73,0,0,0,0,0,0,0,0,0,0,0,0,0,0,0,0,
474,-13.14,-9.897,79.87,70.31,63.31,38.89,7.626,44.94,27.23,3.155,-11.45,-78.02,34.63,70.96,12.84,23.8,0,0,0,0,0,0,0,0,0,0,0,0,0,0,0,0,
475,-7.649,-3.869,80.84,73.61,85.29,44.1,23.56,42.92,31.54,-6.292,-14.69,-61.29,41.91,81.28,15.87,35.74,0,0,0,0,0,0,0,0,0,0,0,0,0,0,0,0,
476,10.74,10.09,54.41,73.74,98.15,77.97,43.31,33.21,43.11,3.573,1.302,-35.51,56.69,83,35.52,43.52,0,0,0,0,0,0,0,0,0,0,0,0,0,0,0,0,
477,15.25,12.92,54.93,53.45,100.8,73.21,31.29,35.86,32.8,10.49,7.307,-34.71,61.48,82.36,40.21,37.68,0,0,0,0,0,0,0,0,0,0,0,0,0,0,0,0,
478,18.63,15.38,78.73,23.59,104.5,56.99,32.97,47.51,26.23,15.4,13.46,-40.43,52.27,81.81,26.1,28.29,0,0,0,0,0,0,0,0,0,0,0,0,0,0,0,0,
479,28.93,21.36,71.81,65.24,100.6,65.03,40.86,47.6,17.06,23.67,12.98,-45.68,42.9,73.61,16.42,24.47,0,0,0,0,0,0,0,0,0,0,0,0,0,0,0,0,
480,31.03,19.74,56.2,83.58,91.27,65.82,24.63,39.81,26.77,31.07,-2.087,-49.56,40.47,74,15.56,25.91,0,0,0,0,0,0,0,0,0,0,0,0,0,0,0,0,
481,24.98,9.241,65.28,31.32,86.69,56.39,15.14,32.94,65.3,24.17,-11.07,-43.13,33.62,72.61,9.489,21.96,0,0,0,0,0,0,0,0,0,0,0,0,0,0,0,0,
482,20.98,-4.567,70.53,23.12,83.22,53.7,19.86,15.58,62.53,9.418,-10.03,-29.48,19.54,49.65,-1.175,10.75,0,0,0,0,0,0,0,0,0,0,0,0,0,0,0,0,
483,25.64,-14.68,60.19,49.69,88.46,59.89,20.8,-1.573,38.71,5.439,-4.793,-18.17,16.03,39.7,0.6092,10.55,0,0,0,0,0,0,0,0,0,0,0,0,0,0,0,0,
484,36.59,-11.42,49.52,52.91,107.5,82.66,32.67,9.713,66.84,-1.914,9.366,-10.57,32.39,61.88,19.06,30.78,0,0,0,0,0,0,0,0,0,0,0,0,0,0,0,0,
485,42.3,3.383,47.35,35.63,114.2,102.5,53.17,21.32,84.45,-5,17.27,-1.592,50.48,80.17,31.78,49.25,0,0,0,0,0,0,0,0,0,0,0,0,0,0,0,0,
486,41.43,14.87,54.54,-4.096,100.9,103.6,62.86,8.717,45.63,20.92,9.352,-0.192,49.11,75.78,22.09,41.15,0,0,0,0,0,0,0,0,0,0,0,0,0,0,0,0,
487,38.97,19.03,59.65,0.9843,94.36,100.7,66.05,22.2,17.3,33.92,6.808,-13.07,36.93,66.59,4.06,20.14,0,0,0,0,0,0,0,0,0,0,0,0,0,0,0,0,
488,31.43,23.78,61.29,68.34,98.53,92.32,64.68,57.9,19.57,14.45,10.9,-15.77,35.71,68.09,-4.912,10.55,0,0,0,0,0,0,0,0,0,0,0,0,0,0,0,0,
489,30.2,34.51,63.56,97.61,103.8,97.41,65.41,56.98,41.4,15.75,10.27,0.8079,42.41,73.59,-1.276,8.638,0,0,0,0,0,0,0,0,0,0,0,0,0,0,0,0,
490,47.59,43.33,71,90.02,115.6,125.7,79.41,44.04,90.16,31.36,15.32,9.546,43.9,69.37,10.38,12.84,0,0,0,0,0,0,0,0,0,0,0,0,0,0,0,0,
491,58.77,35.54,100.1,101.9,127.2,121.7,85.97,38.75,119.1,19.12,21.56,6.08,43.41,58.3,17.79,23.1,0,0,0,0,0,0,0,0,0,0,0,0,0,0,0,0,
492,49.02,24.21,121.1,104.1,128.3,86.69,74.58,20.43,95.66,6.311,10.82,2.473,42.65,49.77,16.69,20.16,0,0,0,0,0,0,0,0,0,0,0,0,0,0,0,0,
493,35.43,25.85,94.91,66.07,118.8,70.64,64.51,18.94,66.5,10.51,-5.558,-15.4,36.37,47.14,11.32,12.19,0,0,0,0,0,0,0,0,0,0,0,0,0,0,0,0,
494,25.59,25.85,56.57,21.74,95.74,66.47,65.85,29.7,56.33,10.21,-6.005,-41.74,35.32,54.52,4.108,24.42,0,0,0,0,0,0,0,0,0,0,0,0,0,0,0,0,
495,32.53,28.25,25.44,23.99,77.82,72.11,82.07,26.77,46.39,20.32,1.903,-41.59,49.42,69.4,6.111,40.72,0,0,0,0,0,0,0,0,0,0,0,0,0,0,0,0,
496,54.48,40.96,11.78,32.35,82.73,80.42,86.33,36.25,51.08,34.07,3.595,-25.56,60.5,77.82,19.57,44.35,0,0,0,0,0,0,0,0,0,0,0,0,0,0,0,0,
497,54.84,38.64,55.02,9.011,81.75,66.52,52.81,34.77,68.54,12.84,11.99,-15.42,58.15,72.07,29.15,50.81,0,0,0,0,0,0,0,0,0,0,0,0,0,0,0,0,
498,47.94,32.01,76.03,27.42,69.02,66.33,35.9,10.15,58.77,0.337,31.4,12.6,64.55,66.03,36.41,62.89,0,0,0,0,0,0,0,0,0,0,0,0,0,0,0,0,
499,69.62,50.55,26.28,64.44,83.9,90.07,60.76,20.67,52.53,35.26,42.47,50.22,81.84,74.22,49.58,68.96,0,0,0,0,0,0,0,0,0,0,0,0,0,0,0,0,
500,86.04,67.07,43.23,69.84,116.9,90.63,68.95,41.96,70.99,50.56,47.65,58.73,81.92,80.39,56.43,67.3,0,0,0,0,0,0,0,0,0,0,0,0,0,0,0,0,
501,75.21,54.33,105,96.87,121.2,77.9,58.44,32.08,60.3,29.63,50.04,48.31,68.87,70.65,47.92,60.93,0,0,0,0,0,0,0,0,0,0,0,0,0,0,0,0,
502,63.38,32.06,66.22,72.4,101.4,75.31,52.87,36.5,59.73,23.82,40.49,35.66,66.69,65.56,36.87,57.67,0,0,0,0,0,0,0,0,0,0,0,0,0,0,0,0,
503,53.59,23.51,22.71,-9.709,92.64,71.57,38.93,52.18,90.02,19.35,38.97,24.28,65.54,69.63,37.29,56.04,0,0,0,0,0,0,0,0,0,0,0,0,0,0,0,0,
504,51.43,29.17,61.19,24.54,102,77.81,40.94,36.22,67.14,8.9,54.26,30.89,56.88,65.98,47.21,44.01,0,0,0,0,0,0,0,0,0,0,0,0,0,0,0,0,
505,75.39,37.06,83.27,91.52,112.3,96.94,53.77,21.32,57.79,15.84,65.61,43.78,58.78,65.01,62.81,36.79,0,0,0,0,0,0,0,0,0,0,0,0,0,0,0,0,
506,100.5,36.79,69.97,50.78,104.1,96.24,27.4,38.24,111.1,10.15,72.65,42.21,66.99,69.07,77.07,47.55,0,0,0,0,0,0,0,0,0,0,0,0,0,0,0,0,
507,94,21.34,44.98,22.81,83.37,65.77,-3.572,46.23,96.55,-8.982,71.17,32.6,58.58,53.86,68.86,47.45,0,0,0,0,0,0,0,0,0,0,0,0,0,0,0,0,
508,66.75,-1.831,6.195,32.97,73.92,30.11,-4.6,31.89,47.79,-6.051,49.83,13.25,37.43,31.73,43.36,30.03,0,0,0,0,0,0,0,0,0,0,0,0,0,0,0,0,
509,42.84,-14.18,11.84,17.55,71.29,10.09,-13.65,37.02,54.79,-11.09,30.05,-8.875,19.53,29.69,30.1,20.92,0,0,0,0,0,0,0,0,0,0,0,0,0,0,0,0,
510,35.46,-18.76,41.44,15.46,63.54,13.4,-17.81,45.69,39.63,-30.32,26.32,-16.32,9.648,32.99,24.14,15.81,0,0,0,0,0,0,0,0,0,0,0,0,0,0,0,0,
511,41.42,-21.9,11.63,-1.976,60.16,26.95,0.5251,24.8,21.24,-17.84,21.35,-25.95,6.811,31.42,10.87,8.353,0,0,0,0,0,0,0,0,0,0,0,0,0,0,0,0,
512,40.86,-15.61,-18.04,-40.09,58.96,27.56,-0.8919,28.06,58.97,3.635,9.254,-42.75,5.527,37.43,2.031,11.5,0,0,0,0,0,0,0,0,0,0,0,0,0,0,0,0,
513,34.09,-7.325,21.38,-4.681,65.89,29.22,-3.64,65.42,79.72,1.065,7.274,-37.47,6.949,45.89,4.062,20.41,0,0,0,0,0,0,0,0,0,0,0,0,0,0,0,0,
514,39.62,-3.903,46.44,63.53,87.51,41.73,24.59,72.67,68.48,1.201,17.5,-19.12,17.69,51.16,7.87,24.44,0,0,0,0,0,0,0,0,0,0,0,0,0,0,0,0,
515,51.3,-0.3514,23.7,70.81,91.4,37.09,34.87,74.2,62.96,11.06,16.82,-23.1,29.3,56.35,3.819,25.28,0,0,0,0,0,0,0,0,0,0,0,0,0,0,0,0,
516,59.14,5.723,44.82,52.61,83.85,37.83,33.15,93.18,55.45,20.07,11.62,-32.19,41.12,61.54,3.158,32.95,0,0,0,0,0,0,0,0,0,0,0,0,0,0,0,0,
517,74.82,31.16,80.88,36.36,97.19,70.21,69.24,68.77,57.05,30.25,35.44,-7.816,66.66,80.47,27.01,52.2,0,0,0,0,0,0,0,0,0,0,0,0,0,0,0,0,
518,99.73,67.62,41.9,14.54,96.21,79.67,87.48,38.2,59.96,31.34,62.55,18.72,76.33,97.07,41.14,53.23,0,0,0,0,0,0,0,0,0,0,0,0,0,0,0,0,
519,101.4,59.43,12.97,28.66,62.73,52.88,53.91,72.14,36.03,22.01,37.08,-9.23,31.01,61.65,1.521,16.74,0,0,0,0,0,0,0,0,0,0,0,0,0,0,0,0,
520,54.3,9.184,36.69,50.34,27.46,32.3,39.8,95.79,9.566,8.525,-15.64,-61.92,-20.11,6.834,-41.16,-11.29,0,0,0,0,0,0,0,0,0,0,0,0,0,0,0,0,
521,6.961,-11.36,19.62,24.72,-6.972,18.46,54.27,77.09,-10.35,-0.3628,-35.44,-80.48,-13.33,5.014,-33.32,3.837,0,0,0,0,0,0,0,0,0,0,0,0,0,0,0,0,
522,11.62,8.036,8.028,32.85,-30.88,14.64,61.97,96.39,-45.04,18.03,-32.24,-80.09,13.53,28.8,-19.88,28.57,0,0,0,0,0,0,0,0,0,0,0,0,0,0,0,0,
523,21.98,18.87,49.52,103.1,-38.04,23.07,74.12,130.2,-53.75,38.06,-33.94,-87.5,9.887,31.93,-32.75,29.14,0,0,0,0,0,0,0,0,0,0,0,0,0,0,0,0,
524,1.196,11.73,43.52,125.4,-55.28,12.57,68.78,121.4,-14.87,16.67,-29.89,-90.18,-0.9198,32.72,-37.19,19.79,0,0,0,0,0,0,0,0,0,0,0,0,0,0,0,0,
525,-17.92,1.422,16.79,88.61,-64.92,-7.741,41.99,112.9,0.6157,0.7471,-19.99,-83.42,5.211,37.48,-24.8,29.98,0,0,0,0,0,0,0,0,0,0,0,0,0,0,0,0,
526,-26.07,-5.058,54.25,61.12,-45,-7.012,53.94,118,-13.64,30.62,-13.39,-73.48,14.68,36.84,-16.39,53.41,0,0,0,0,0,0,0,0,0,0,0,0,0,0,0,0,
527,-26.45,-3.559,72.31,53.85,-39.9,-1.095,76.7,112.7,-7.652,44.55,-13.04,-71.99,9.143,35.3,-18.18,53.69,0,0,0,0,0,0,0,0,0,0,0,0,0,0,0,0,
528,-27.76,-14.07,22.62,63.3,-65.19,-10.86,53.24,110.6,-15.27,16.44,-30.64,-88.96,-11.24,27.41,-29.48,29.22,0,0,0,0,0,0,0,0,0,0,0,0,0,0,0,0,
529,-48.6,-37.38,-3.95,72.42,-80.91,-22.06,34,110.5,-38.64,9.188,-43.68,-96.34,-20.51,17.96,-33.91,13.92,0,0,0,0,0,0,0,0,0,0,0,0,0,0,0,0,
530,-50.79,-33.72,24.54,59.6,-78.71,-16.75,41.48,105.9,-28.87,29.44,-25.67,-72.21,-11.04,17.27,-21.85,15.84,0,0,0,0,0,0,0,0,0,0,0,0,0,0,0,0,
531,-19.26,-11.53,40.43,55.39,-76.76,-4.053,39.82,105.6,-20.51,23.96,-12.19,-44.92,-6.818,14.8,-14.13,24.71,0,0,0,0,0,0,0,0,0,0,0,0,0,0,0,0,
532,-6.957,-4.345,19.74,79.53,-81.48,-0.3955,40.85,105.6,-36.1,3.934,-23.68,-39.47,-11.71,7.888,-15.83,35.76,0,0,0,0,0,0,0,0,0,0,0,0,0,0,0,0,
533,-15.28,-3.966,7.676,74.93,-96.85,-5.465,45.9,107,-41.02,-0.9152,-37.81,-54.34,-19.18,-2.048,-21.99,34.2,0,0,0,0,0,0,0,0,0,0,0,0,0,0,0,0,
534,-21,-3.154,11.46,22.76,-106.7,-10.02,42.07,106.2,-39.06,-5.521,-50.15,-71.04,-25.69,-14.52,-33.99,22.61,0,0,0,0,0,0,0,0,0,0,0,0,0,0,0,0,
535,-25.58,7.773,9.252,16.49,-91.78,-6.899,47.66,97.07,-52.91,-4.428,-54.52,-64.02,-13.27,-9.587,-25.28,30.11,0,0,0,0,0,0,0,0,0,0,0,0,0,0,0,0,
536,-12.1,33.65,8.028,50.93,-84.18,-2.943,50.68,95.35,-80.89,6.746,-42.82,-43.69,11.55,11.51,4.358,53.64,0,0,0,0,0,0,0,0,0,0,0,0,0,0,0,0,
537,6.478,39.24,-7.736,17.44,-104.2,-7.883,40.03,101.6,-81.25,7.451,-31.72,-42.51,23.18,23.12,9.872,67.34,0,0,0,0,0,0,0,0,0,0,0,0,0,0,0,0,
538,-1.296,24.38,-44.85,-5.368,-110.4,-14.81,37.94,104.4,-44.67,11.09,-34.16,-56.82,26.31,27.11,1.741,76.22,0,0,0,0,0,0,0,0,0,0,0,0,0,0,0,0,
539,-12.66,23.45,-48.41,60.16,-95.23,-16.55,39.94,104.2,-36.76,22.28,-42.81,-56.44,28.72,32.98,12.06,86.06,0,0,0,0,0,0,0,0,0,0,0,0,0,0,0,0,
540,-11.04,27.24,-8.412,65.31,-95.55,-10.71,44.53,100.6,-51.64,20.27,-45.69,-42.26,21.12,35.31,8.277,72.61,0,0,0,0,0,0,0,0,0,0,0,0,0,0,0,0,
541,-17.74,17.99,17.18,4.281,-107.8,-7.034,54.54,104.2,-52.66,15.11,-51.77,-50.56,1.028,31.96,-24.36,31.33,0,0,0,0,0,0,0,0,0,0,0,0,0,0,0,0,
542,-28.89,-0.8173,11.64,33.7,-107.3,-23.23,43.73,118,-75.98,13.37,-68,-69.92,-20.07,24.34,-43.58,1.427,0,0,0,0,0,0,0,0,0,0,0,0,0,0,0,0,
543,-26.71,-16.99,-4.533,86.96,-102.1,-39.25,24.24,122.1,-96,11.63,-66.6,-54.44,-26.99,18.91,-42.52,4.613,0,0,0,0,0,0,0,0,0,0,0,0,0,0,0,0,
544,-23.61,-20.36,-30.4,36.88,-114.1,-36.57,26.55,111,-74.91,10.02,-49.52,-32.34,-24.33,18.79,-41.89,17.86,0,0,0,0,0,0,0,0,0,0,0,0,0,0,0,0,
545,-29.03,-23.59,-61.31,-31.62,-136.7,-42.46,26.59,95.52,-59.32,-4.917,-49.38,-38.07,-25.95,14.07,-28.39,27.91,0,0,0,0,0,0,0,0,0,0,0,0,0,0,0,0,
546,-25.29,-28.48,-70.75,-10.59,-138.1,-56.7,7.222,94.46,-60.85,-16.67,-52.29,-39.1,-26.25,7.295,-7.749,37.64,0,0,0,0,0,0,0,0,0,0,0,0,0,0,0,0,
547,-9.712,-23.8,-43.44,50.6,-112.1,-54.38,1.335,111.5,-66.29,-10.95,-45.96,-32.04,-20.87,11.86,-17.54,32.51,0,0,0,0,0,0,0,0,0,0,0,0,0,0,0,0,
548,2.439,-21.5,-1.146,54.24,-89.14,-48.9,20.87,118.8,-70.79,-14.05,-52.8,-31.03,-18.8,19.43,-42.62,12.71,0,0,0,0,0,0,0,0,0,0,0,0,0,0,0,0,
549,9.12,-20.25,20.03,20.28,-87.04,-49.85,31.57,119.4,-62.63,-15.36,-61.56,-16.69,-23.39,12.8,-44.65,0.4278,0,0,0,0,0,0,0,0,0,0,0,0,0,0,0,0,
550,14.36,-13.01,15.77,37.21,-87.91,-36.78,34.7,128.4,-58.27,-2.25,-47.02,-1.732,-28.08,0.4139,-36.59,-4.254,0,0,0,0,0,0,0,0,0,0,0,0,0,0,0,0,
551,15.41,-12.52,4.77,70.61,-92.1,-15.31,57.75,107.5,-51.64,-1.89,-34.44,-11.67,-24.35,2.419,-35.71,-7.205,0,0,0,0,0,0,0,0,0,0,0,0,0,0,0,0,
552,1.56,-9.104,-2.082,27.38,-117.2,-18.26,61.89,69.72,-56.35,-7.265,-48.7,-27.32,-14.78,16.18,-29.46,-1.373,0,0,0,0,0,0,0,0,0,0,0,0,0,0,0,0,
553,-15.21,1.019,1.075,-32.34,-126.1,-33.12,29.05,89.32,-99.21,-2.419,-45.9,-26.36,-8.837,23.66,-12.16,5.907,0,0,0,0,0,0,0,0,0,0,0,0,0,0,0,0,
554,-3.437,-7.02,-1.457,1.847,-97.52,-26.45,14.97,125.2,-93.24,4.182,-4.764,-17.8,-8.011,17.42,4.484,5.098,0,0,0,0,0,0,0,0,0,0,0,0,0,0,0,0,
555,13.65,-19.13,-13.25,75.5,-82.27,-23.29,17,102.3,-32.95,8.702,6.767,-14.46,-5.989,10.71,6.547,5.777,0,0,0,0,0,0,0,0,0,0,0,0,0,0,0,0,
556,5.667,-2.464,1.11,64.74,-84.28,-36.84,12.44,79.95,-27.93,8.723,-21.93,-8.57,4.071,20.26,-5.399,11.87,0,0,0,0,0,0,0,0,0,0,0,0,0,0,0,0,
557,3.15,21.98,13.06,7.042,-84.48,-34.16,23.01,88.42,-37.97,16.82,-27.79,-10.4,9.22,29.61,-21.87,13.59,0,0,0,0,0,0,0,0,0,0,0,0,0,0,0,0,
558,3.688,19.89,-16.91,20.91,-102.7,-29.89,29.42,69.28,-39.05,24.82,-26.25,-37.52,-2.734,20.68,-36.6,10.57,0,0,0,0,0,0,0,0,0,0,0,0,0,0,0,0,
559,-13.44,9.736,-28.52,36.62,-112.7,-35.92,26.72,45.5,-77.71,2.711,-40.04,-45.55,-4.127,19.98,-35.94,8.993,0,0,0,0,0,0,0,0,0,0,0,0,0,0,0,0,
560,-16,19.38,-18.13,-30.17,-103.9,-25.53,37.3,35,-61.4,-10.18,-30.23,-14.46,12.38,31.03,-22.95,3.253,0,0,0,0,0,0,0,0,0,0,0,0,0,0,0,0,
561,-9.927,30.72,-29.3,-37.51,-116.6,-28.12,24.49,0.7311,-13.26,13.14,-16.61,-2.156,9.656,19.74,-23.28,-11.81,0,0,0,0,0,0,0,0,0,0,0,0,0,0,0,0,
562,-20.81,28.87,-17.09,23.83,-123.1,-59.03,5.767,-3.047,-61.93,22.91,-27.16,-8.307,-5.862,3.479,-27.79,-22.69,0,0,0,0,0,0,0,0,0,0,0,0,0,0,0,0,
563,-14.92,33.36,0.1686,12.31,-104.4,-62.32,33.84,37.09,-89.55,22.17,-19.03,1.865,-2.919,11.96,-19.09,-21.12,0,0,0,0,0,0,0,0,0,0,0,0,0,0,0,0,
564,4.685,43.62,-22.01,23.76,-106.2,-42.92,40.94,29.42,-36.17,33.34,-4.113,-2.415,1.25,18.47,-18.59,-20.79,0,0,0,0,0,0,0,0,0,0,0,0,0,0,0,0,
565,-0.2554,41.59,-23.05,64.23,-116.8,-46.52,2.043,-9.058,-47.95,27.42,-24.35,-20.61,-6.593,9.436,-22.59,-21.31,0,0,0,0,0,0,0,0,0,0,0,0,0,0,0,0,
566,-6.276,36.16,-27.99,-18.6,-109.5,-48.34,3.192,-16.34,-78.09,15.2,-31,-11.07,-6.908,6.288,-7.353,-8.399,0,0,0,0,0,0,0,0,0,0,0,0,0,0,0,0,
567,2.553,34.55,-79.63,-65.56,-113.3,-28.75,21.93,-14.5,-41.18,15.66,-2.557,6.731,-1.663,9.518,5.291,3.888,0,0,0,0,0,0,0,0,0,0,0,0,0,0,0,0,
568,-0.4457,27.93,-76.61,0.2088,-130.2,-25.25,0.0985,-20.92,-37.87,8.796,-0.8826,4.354,-3.486,10.46,-1.464,-1.313,0,0,0,0,0,0,0,0,0,0,0,0,0,0,0,0,
569,-14.85,21.8,-26.35,-32.56,-132,-49.31,-10.8,-37.55,-74.29,2.833,-29.09,-8.848,-8.023,9.519,-16,-12.86,0,0,0,0,0,0,0,0,0,0,0,0,0,0,0,0,
570,-33.86,11.09,-38.21,-83.35,-126.7,-71.94,-6.548,-53.95,-92.99,0.2772,-47.31,-26.63,-12.15,9.749,-34.4,-16.02,0,0,0,0,0,0,0,0,0,0,0,0,0,0,0,0,
571,-47.49,-8.945,-66.68,-12.13,-126.5,-69.74,-28.08,-50.91,-113.1,-8.765,-51.6,-23.24,-3.601,25.83,-36.05,1.224,0,0,0,0,0,0,0,0,0,0,0,0,0,0,0,0,
572,-28.32,-1.665,-57.66,7.031,-122.4,-47.12,-36.07,-59.07,-100.6,3.514,-38.9,12.33,16.96,47.65,-23.58,24.19,0,0,0,0,0,0,0,0,0,0,0,0,0,0,0,0,
573,-13.74,18.24,-71,-68.01,-134,-42.59,-25.46,-79.1,-64.53,20.99,-30.76,15.66,6.011,35.06,-44.4,11.1,0,0,0,0,0,0,0,0,0,0,0,0,0,0,0,0,
574,-49.08,-6.268,-99.94,-74.47,-172.3,-67.61,-28.54,-62.93,-85.92,3.731,-54.61,-21.46,-28.71,3.434,-75.96,-22.2,0,0,0,0,0,0,0,0,0,0,0,0,0,0,0,0,
575,-76.55,-25.19,-73.8,-18.52,-187,-80.14,-14.22,-31.67,-125.4,-3.548,-65.47,-17.25,-27.6,-2.222,-67.86,-29.73,0,0,0,0,0,0,0,0,0,0,0,0,0,0,0,0,
576,-65.06,-0.1179,-21.02,-9.349,-165.5,-70.74,0.0319,-35.2,-122.6,14.39,-43.07,8.29,-17.1,-4.001,-59.45,-30.03,0,0,0,0,0,0,0,0,0,0,0,0,0,0,0,0,
577,-60.3,-8.387,-12.68,-18.77,-144.9,-57.14,-25.07,-56.92,-97.28,-1.342,-35.48,-10.73,-39.04,-24.64,-72.01,-43.55,0,0,0,0,0,0,0,0,0,0,0,0,0,0,0,0,
578,-55.97,-42.65,-31.17,15.26,-120.9,-28.64,-28.52,-52.01,-61.26,-27.73,-31.83,-18.65,-45.44,-28.3,-61.65,-44.45,0,0,0,0,0,0,0,0,0,0,0,0,0,0,0,0,
579,-31.22,-28.98,-36.54,44.72,-99.51,3.51,3.765,-30.22,-28.81,-10.3,10.47,24.93,-16.97,-5.375,-23.41,-14.21,0,0,0,0,0,0,0,0,0,0,0,0,0,0,0,0,
580,-0.987,5.719,-23.94,51.37,-95.4,14.98,15.45,-33.19,-7.002,19.64,65.55,73.1,13.22,18.36,29.45,45.24,0,0,0,0,0,0,0,0,0,0,0,0,0,0,0,0,
581,35.04,27.98,18.58,45,-71.93,22.93,23.34,-38.64,6.572,32.07,86.42,108.6,39.11,35.14,77.28,93.3,0,0,0,0,0,0,0,0,0,0,0,0,0,0,0,0,
582,55.12,38.33,47.22,-14.61,-46.95,30.65,30.96,-30.54,-13.14,23.92,56.14,115.1,38.8,28.36,59.74,76.95,0,0,0,0,0,0,0,0,0,0,0,0,0,0,0,0,
583,21.83,12.15,-10.29,-54.53,-84.55,2.046,-1.855,-55.35,-59.92,-16.61,-12.79,73.74,-5.601,-13.44,-14.89,27.06,0,0,0,0,0,0,0,0,0,0,0,0,0,0,0,0,
584,-37.19,-29.71,-89.67,-14.78,-140.8,-54.93,-41.56,-80.05,-100.4,-51.74,-68.11,39.26,-41.26,-46.42,-50.38,9.95,0,0,0,0,0,0,0,0,0,0,0,0,0,0,0,0,
585,-62.38,-38.61,-86.09,-3.137,-137.7,-75.19,-49.03,-54.09,-109.6,-37.53,-64.52,44.91,-35.94,-40.94,-33.99,19.81,0,0,0,0,0,0,0,0,0,0,0,0,0,0,0,0,
586,-48.11,-31.04,-41.21,-16.44,-107.2,-51.55,-45.23,-46.02,-87.87,-16.47,-35.72,51.41,-27.68,-31.47,-33.04,25.41,0,0,0,0,0,0,0,0,0,0,0,0,0,0,0,0,
587,-34.64,-30,-43.95,12.52,-110.7,-34.97,-33.2,-76.8,-91.43,-25.08,-30.39,58.23,-23.74,-27.92,-39.44,31.53,0,0,0,0,0,0,0,0,0,0,0,0,0,0,0,0,
588,-24.14,-11.62,-78.94,10.67,-132.3,-19.83,-13.01,-82.61,-111.7,-23.22,-27.93,82.5,-2.659,-9.407,-19.07,40.84,0,0,0,0,0,0,0,0,0,0,0,0,0,0,0,0,
589,-4.335,17.5,-74.16,-26.28,-137.2,-10.88,-18.01,-79.26,-82.9,-8.421,-20.35,87.05,4.181,-2.135,-12.49,38.17,0,0,0,0,0,0,0,0,0,0,0,0,0,0,0,0,
590,-14.07,14.43,-29.96,-23.55,-131.1,-48.38,-38.98,-86.52,-49.9,-19.51,-31.5,74.27,-15.6,-17.89,-25.8,35.52,0,0,0,0,0,0,0,0,0,0,0,0,0,0,0,0,
591,-39.24,-3.403,-17.68,-14.32,-119.8,-72.24,-31.02,-72.02,-56.84,-24.9,-32.47,94.8,-12.28,-18.25,-6.439,52.58,0,0,0,0,0,0,0,0,0,0,0,0,0,0,0,0,
592,-20.79,0.1567,-44.23,-44.13,-108.1,-42.6,-17.49,-71.38,-70.8,-9.831,-15.02,120.5,4.086,-13.15,20.59,59.54,0,0,0,0,0,0,0,0,0,0,0,0,0,0,0,0,
593,4.372,-5.21,-49.69,-71.79,-112.6,-31.05,-37.45,-104.1,-81.79,-26.26,-15.96,109,-10.84,-30.18,13.84,40.53,0,0,0,0,0,0,0,0,0,0,0,0,0,0,0,0,
594,5.663,-27.06,-34.39,-34.83,-116.2,-30.68,-50.52,-94.71,-68.73,-41.86,-12.85,99.17,-21.64,-37.52,10.44,38.82,0,0,0,0,0,0,0,0,0,0,0,0,0,0,0,0,
595,17.9,-25.71,-35.9,45.53,-98.78,-9.553,-33.09,-52.2,-42.24,-8.847,5.663,100.5,-6.772,-24.6,14.05,55.42,0,0,0,0,0,0,0,0,0,0,0,0,0,0,0,0,
596,21.17,-13.55,-46.24,52.07,-97.33,-17.95,-27.5,-56.97,-58.42,7.663,-5.198,82.46,-7.675,-24.07,-10.3,47.15,0,0,0,0,0,0,0,0,0,0,0,0,0,0,0,0,
597,0.0887,-17.65,-53.34,-38.72,-131.1,-39.84,-40.61,-81.69,-89.51,-14.58,-37.95,60.28,-22.96,-34.18,-37.66,26.8,0,0,0,0,0,0,0,0,0,0,0,0,0,0,0,0,
598,-14.44,-23.52,-55.47,-76.96,-146.7,-29.51,-43.34,-78.7,-97.54,-23.09,-57.72,40.63,-28.14,-39.65,-45.45,24.89,0,0,0,0,0,0,0,0,0,0,0,0,0,0,0,0,
599,-25.51,-24.91,-29.45,-8.715,-122.3,-19.08,-33.26,-69.64,-91.44,-23.63,-61,19.05,-32.48,-47.93,-53.75,27.93,0,0,0,0,0,0,0,0,0,0,0,0,0,0,0,0,
600,-29.82,-31.9,3.411,17.12,-109.8,-19.24,-28.14,-59.22,-72.19,-33.09,-49.73,20.32,-39.19,-58.59,-61.22,19.88,0,0,0,0,0,0,0,0,0,0,0,0,0,0,0,0,
601,-17.28,-42.15,-5.058,-29.12,-114.7,-13.88,-31.79,-43.53,-64.47,-36.53,-39.59,32.55,-43.19,-63.73,-60.21,5.972,0,0,0,0,0,0,0,0,0,0,0,0,0,0,0,0,
602,-17.38,-42.99,-17.71,-10.47,-99.54,-18.14,-20.63,-41.6,-61.54,-32.33,-42.52,28.25,-44.55,-65.05,-63.24,-1.383,0,0,0,0,0,0,0,0,0,0,0,0,0,0,0,0,
603,-30.25,-32.85,-11.08,49.62,-90.05,-26.22,-2.194,-51.09,-55.43,-29.74,-50.76,24.83,-39.18,-62.01,-67.46,4.204,0,0,0,0,0,0,0,0,0,0,0,0,0,0,0,0,
604,-29.84,-29.06,-24.31,39.14,-104.1,-21.19,-13.52,-53.34,-92.56,-42.14,-64.18,28.06,-36.28,-53.83,-59.68,11.28,0,0,0,0,0,0,0,0,0,0,0,0,0,0,0,0,
605,-26.61,-31.31,-20.17,0.2521,-104.7,-26.6,-32.75,-48.38,-105.6,-52.86,-66.04,26.64,-42.19,-46.85,-43.74,13.52,0,0,0,0,0,0,0,0,0,0,0,0,0,0,0,0,
606,-28.78,-25.15,-3.375,-2.71,-107.3,-52.3,-35.52,-49.78,-44.09,-27.96,-41.95,29.06,-39.1,-39.36,-29.13,23.87,0,0,0,0,0,0,0,0,0,0,0,0,0,0,0,0,
607,-28.14,-26.44,-60.51,0.3023,-131.6,-61.57,-46.87,-52.7,-34.55,-2.314,-29.59,32.81,-25.23,-26.74,-20.24,38.25,0,0,0,0,0,0,0,0,0,0,0,0,0,0,0,0,
608,-29.35,-39.77,-100.6,-25.94,-130.6,-47.57,-55.81,-47.22,-68.7,-13.75,-42.3,31.86,-16.57,-20.46,-17.05,37.12,0,0,0,0,0,0,0,0,0,0,0,0,0,0,0,0,
609,-28.77,-32.49,-32.3,-61.92,-105.4,-40.84,-45.56,-47.04,-47.98,-22.68,-38.29,38.43,-10.06,-24.93,-13.5,26.07,0,0,0,0,0,0,0,0,0,0,0,0,0,0,0,0,
610,-18.82,-13.41,-0.7408,-66.99,-104.4,-40.26,-41.34,-48.07,-40.24,-12.78,-17.43,45.01,-0.4105,-24.02,-8.291,20,0,0,0,0,0,0,0,0,0,0,0,0,0,0,0,0,
611,-12.23,-15.98,-39.22,-30.16,-109.3,-36.71,-45.68,-34.8,-45.23,-6.26,-10.2,36.58,9.04,-14.99,-4.352,18.38,0,0,0,0,0,0,0,0,0,0,0,0,0,0,0,0,
612,-8.992,-12.94,-18.47,40.65,-88.22,-31.3,-40.99,-23.21,-3.187,8.304,-6.601,35.03,20.08,-8.834,3.038,21.45,0,0,0,0,0,0,0,0,0,0,0,0,0,0,0,0,
613,5.912,13.74,9.032,88.34,-66.14,-7.522,-18.69,-19.33,4.334,22.99,2.446,55.66,24.8,-5.947,8.477,23.88,0,0,0,0,0,0,0,0,0,0,0,0,0,0,0,0,
614,22.46,22.05,-22.4,51.39,-61.35,17.46,8.4,-16.41,-28.32,10.3,4.301,76.78,14.54,-10.21,1.927,16.61,0,0,0,0,0,0,0,0,0,0,0,0,0,0,0,0,
615,32.88,11.38,-13.56,5.306,-61.74,11.42,4.92,-20.38,-13.15,1.755,8.868,92.26,5.039,-22.28,2.918,16.02,0,0,0,0,0,0,0,0,0,0,0,0,0,0,0,0,
616,50.36,14.81,10.57,9.167,-63.28,8.04,-16.77,-28.73,35.14,22.29,25.3,107.1,8.373,-22.88,18.48,29.47,0,0,0,0,0,0,0,0,0,0,0,0,0,0,0,0,
617,59.37,15.68,-42.15,-15.21,-69.38,19.55,-31.04,-46.34,47.74,31.88,31.84,106.3,12.03,-12.94,15.36,32.55,0,0,0,0,0,0,0,0,0,0,0,0,0,0,0,0,
618,39.84,-1.731,-62.77,-59.63,-77.93,-5.482,-62.72,-73.85,-22.08,15.63,16.32,95.82,6.689,-15.13,-4.882,24.22,0,0,0,0,0,0,0,0,0,0,0,0,0,0,0,0,
619,26.08,-18.87,-2.057,-44.52,-77.21,-44.77,-86.5,-83.85,-86.15,6.093,-3.703,91.67,-0.224,-23.67,-10.74,20.81,0,0,0,0,0,0,0,0,0,0,0,0,0,0,0,0,
620,37.39,-28.14,-2.369,0.4988,-67.06,-36.82,-66.48,-73.32,-25.57,9.057,-14.8,80.49,-3.35,-24.77,-12.36,14.36,0,0,0,0,0,0,0,0,0,0,0,0,0,0,0,0,
621,31.12,-27.24,-54.9,17.28,-78.36,-22.7,-59.54,-61.05,27.95,3.073,-18.94,64.25,-7.539,-26.31,-19.47,2.325,0,0,0,0,0,0,0,0,0,0,0,0,0,0,0,0,
622,4.438,-15.19,-50.6,6.72,-109.5,-46.46,-74.55,-53.1,-21.57,-10.96,-14.2,60.47,-12.28,-30.26,-14.18,-1.938,0,0,0,0,0,0,0,0,0,0,0,0,0,0,0,0,
623,-1.858,-10.13,-50.47,-15.46,-124.4,-66.84,-67.83,-61.83,-44.06,-13.3,-10.21,55.03,-13.14,-31.71,-5.952,3.382,0,0,0,0,0,0,0,0,0,0,0,0,0,0,0,0,
624,-5.111,-21.41,-97.92,-52.25,-131.9,-72.61,-78.85,-83.7,-46.11,-9.514,-23.15,39.65,-17.58,-32.21,-11.02,10.2,0,0,0,0,0,0,0,0,0,0,0,0,0,0,0,0,
625,-26.04,-36.01,-103.6,-90.22,-139,-84.11,-120,-97.47,-77.11,-25.12,-30.21,25.85,-30.62,-35.77,-19.48,10.05,0,0,0,0,0,0,0,0,0,0,0,0,0,0,0,0,
626,-38.78,-48.26,-74.11,-89.04,-132.9,-92.81,-138.5,-114,-69.1,-48.72,-18.99,10,-41.93,-48.13,-27.8,5.537,0,0,0,0,0,0,0,0,0,0,0,0,0,0,0,0,
627,-46.29,-53.91,-105.5,-65.11,-138.6,-106.8,-137.1,-139.8,-58.92,-48.65,-19.98,-2.988,-46.16,-61.03,-37.57,2.998,0,0,0,0,0,0,0,0,0,0,0,0,0,0,0,0,
628,-56.61,-41.61,-162.9,-60.98,-146.4,-118.9,-126.9,-143.5,-63.37,-35.38,-27.81,-3.548,-50.42,-63.76,-44.06,-4.816,0,0,0,0,0,0,0,0,0,0,0,0,0,0,0,0,
629,-56.49,-29.25,-136.8,-58.11,-129.9,-104.7,-103.9,-123.9,-40.21,-34.85,-28.94,-5.945,-52.98,-64.26,-45.37,-9.758,0,0,0,0,0,0,0,0,0,0,0,0,0,0,0,0,
630,-55.64,-32.53,-74.29,-46.34,-128.6,-92.43,-94.27,-112.3,-45.89,-39.08,-36.77,-6.098,-43.27,-58.95,-34.65,2.91,0,0,0,0,0,0,0,0,0,0,0,0,0,0,0,0,
631,-48.98,-25.31,-87.92,-57.02,-144.5,-88,-89.44,-112,-57.6,-34.05,-30.65,10.25,-30.99,-44.25,-19.13,11.62,0,0,0,0,0,0,0,0,0,0,0,0,0,0,0,0,
632,-25.95,-11.25,-110.3,-87.52,-133.1,-64.09,-68.06,-117.5,-45.48,-25.74,-10.83,24.66,-28.46,-37.24,-18.31,8.439,0,0,0,0,0,0,0,0,0,0,0,0,0,0,0,0,
633,-6.644,-10.39,-52.5,-79.48,-97.82,-39.75,-51.06,-122.6,-66.56,-20.86,-7.538,33.25,-21.14,-34.32,-20.13,13.23,0,0,0,0,0,0,0,0,0,0,0,0,0,0,0,0,
634,12.18,2.685,-1.83,-10.38,-61.03,-17.24,-41.34,-106.8,-34.72,-17.68,1.316,48.67,-9.355,-30.76,-12.03,12.13,0,0,0,0,0,0,0,0,0,0,0,0,0,0,0,0,
635,33.83,22.14,-11.86,36.11,-46.47,11.56,-29.3,-81.96,59.01,-7.46,19.16,62.11,-7.16,-34.11,-6.603,3.927,0,0,0,0,0,0,0,0,0,0,0,0,0,0,0,0,
636,39.78,21.21,-15.69,21.36,-57.73,8.867,-26.45,-78.52,49.15,12.12,20,76.58,-2.839,-27.57,0.244,17.63,0,0,0,0,0,0,0,0,0,0,0,0,0,0,0,0,
637,37.55,16.56,-8.547,19.25,-69.63,-22.34,-38.97,-93.8,-7.328,15.08,17.96,85.41,-1.824,-17.54,7.722,28.2,0,0,0,0,0,0,0,0,0,0,0,0,0,0,0,0,
638,29,6.852,-12.89,24.99,-82.87,-40.26,-53.96,-103.5,11.19,-2.327,11.91,65.5,-13.95,-23.29,-0.825,10.69,0,0,0,0,0,0,0,0,0,0,0,0,0,0,0,0,
639,13.94,-2.434,-4.624,-11.88,-90.97,-44.02,-40.98,-89.22,24.11,2.623,-1.444,45.59,-13.99,-20.03,-11.91,-1.342,0,0,0,0,0,0,0,0,0,0,0,0,0,0,0,0,
640,14.15,11.64,-5.649,-44.53,-79.47,-43.51,-12.12,-78.48,9.866,19.69,-0.8985,46.59,-9.938,-12.26,-13.43,-2.476,0,0,0,0,0,0,0,0,0,0,0,0,0,0,0,0,
641,16.52,10.94,-21.55,-35.49,-68.18,-36.6,-19.42,-92.64,22.4,13.38,-2.754,38.68,-19.43,-21.14,-14.32,-1.015,0,0,0,0,0,0,0,0,0,0,0,0,0,0,0,0,
642,1.078,-10.93,-5.189,-8.968,-62.85,-28.7,-38.99,-78.8,20.76,16.11,-17.24,26.21,-14.95,-16.57,-7.58,21.32,0,0,0,0,0,0,0,0,0,0,0,0,0,0,0,0,
643,-11.98,-8.758,-6.778,3.047,-68.51,-27.76,-32.86,-50.12,-13.26,19.87,-28.74,20.7,-4.197,-1.616,0.7643,38.46,0,0,0,0,0,0,0,0,0,0,0,0,0,0,0,0,
644,-12.93,-8.361,-64.22,-23.14,-89.77,-33.58,-38.37,-76.13,-28.28,-14.03,-43.73,8.128,-10.07,-5.517,-8.525,23.38,0,0,0,0,0,0,0,0,0,0,0,0,0,0,0,0,
645,-16,-23.84,-78.11,-45.69,-96.29,-40.56,-51.65,-94.38,-10.62,-22.35,-51.62,8.951,-8.259,-10.05,-16.36,10.07,0,0,0,0,0,0,0,0,0,0,0,0,0,0,0,0,
646,-22.83,-13.33,-39.01,-6.831,-92.51,-44.71,-38.59,-59.05,7.638,17.55,-40.07,33.48,-0.006,-12.27,-7.38,8.074,0,0,0,0,0,0,0,0,0,0,0,0,0,0,0,0,
647,-16.29,4.56,-26.65,32.04,-93.88,-41.77,-31.51,-52.5,-6.159,31.48,-33.35,42.3,-6.181,-23.88,-8.995,-4.024,0,0,0,0,0,0,0,0,0,0,0,0,0,0,0,0,
648,-0.419,0.3663,-14.1,-11.27,-81.58,-39.14,-36.13,-70.21,-40.38,22.32,-35.55,22.02,-12.77,-27.62,-26.39,-17.27,0,0,0,0,0,0,0,0,0,0,0,0,0,0,0,0,
649,-2.5,1.423,7.254,-46.53,-70.29,-44.02,-18.58,-53.53,-35.78,22.34,-31.42,5.711,-13.32,-24.9,-28.06,-23.02,0,0,0,0,0,0,0,0,0,0,0,0,0,0,0,0,
650,-10.89,14.06,-14.3,24.07,-72.25,-30.87,-0.3535,-43.55,15.8,21.23,-23.2,11.77,-12.88,-26.68,-16.86,-27.35,0,0,0,0,0,0,0,0,0,0,0,0,0,0,0,0,
651,-2.229,16.7,-36.65,65.66,-68.12,3.528,0.1405,-57.26,41.17,29.46,-13.79,17.71,-9.506,-26.75,-23.52,-32.21,0,0,0,0,0,0,0,0,0,0,0,0,0,0,0,0,
652,7.8,16.89,-11.34,-4.061,-62.87,16.69,0.3075,-51.76,13.96,37.45,-9.165,10.46,-13.4,-31.61,-42.45,-42,0,0,0,0,0,0,0,0,0,0,0,0,0,0,0,0,
653,10.03,24.3,9.275,-22.51,-67.77,5.101,-8.083,-49.39,-8.588,28.08,-20.06,8.318,-22.67,-41.38,-48.5,-51.26,0,0,0,0,0,0,0,0,0,0,0,0,0,0,0,0,
654,10.23,24.56,-9.76,28.56,-84.75,-0.3336,-19.98,-73.56,-5.08,21.37,-35.11,7.691,-15.85,-37.69,-38.73,-45.37,0,0,0,0,0,0,0,0,0,0,0,0,0,0,0,0,
655,10.76,22.56,-21.22,10.62,-99.97,2.987,-10.63,-71.67,-9.847,12.13,-35.58,-9.371,-2.267,-28.1,-30.75,-33.89,0,0,0,0,0,0,0,0,0,0,0,0,0,0,0,0,
656,9.786,27.82,-5.896,-33.33,-91.3,2.028,1.07,-45.42,-25.39,0.4588,-34.1,-31.85,-8.451,-36.74,-40.99,-36.48,0,0,0,0,0,0,0,0,0,0,0,0,0,0,0,0,
657,-5.647,18.77,-8.539,-28.2,-77.48,-4.961,2.087,-53.39,-29.76,8.801,-43.42,-40.21,-19.2,-51.26,-47.43,-39.44,0,0,0,0,0,0,0,0,0,0,0,0,0,0,0,0,T1
658,-18.01,5.795,-9.213,3.965,-76.14,-8.764,6.983,-59.5,-26.97,17.39,-39.73,-30.23,-11.97,-44.02,-23.52,-28.72,0,0,0,0,0,0,0,0,0,0,0,0,0,0,0,0,
659,-4.585,16.34,30.81,48.48,-75.31,-8.461,2.093,-27,-17.55,14.69,-18.83,-19.59,-3.837,-27.42,0.7353,-27.06,0,0,0,0,0,0,0,0,0,0,0,0,0,0,0,0,
660,2.511,22.28,30.69,59.42,-74.89,-10.5,-14.84,-21.44,0.1144,20.77,-8.729,-20.47,-2.819,-22.65,2.809,-33.73,0,0,0,0,0,0,0,0,0,0,0,0,0,0,0,0,
661,-6.81,11.12,-32.25,32.35,-70.53,-13.95,-21,-49.57,2.212,27.81,-3.268,-13.69,-0.5574,-23.04,4.536,-23.93,0,0,0,0,0,0,0,0,0,0,0,0,0,0,0,0,
662,-7.269,6.172,-37.09,17.94,-66.42,-28.27,-24.23,-49.57,-8.53,21.64,11.76,-0.8211,-5.113,-25.64,11.41,-12.67,0,0,0,0,0,0,0,0,0,0,0,0,0,0,0,0,
663,-9.027,-0.1527,14.36,-8.28,-83.03,-51.09,-35.66,-28.31,-18.99,17.17,11.74,-5.917,-8.626,-28.77,12.95,-11.65,0,0,0,0,0,0,0,0,0,0,0,0,0,0,0,0,
664,-17.3,-7.13,5.777,-32.72,-105.4,-54.98,-39.95,-17,-48.54,28.06,-12.17,-19.75,-5.008,-28.3,-2.199,-14.97,0,0,0,0,0,0,0,0,0,0,0,0,0,0,0,0,
665,-22.21,-5.846,-37.97,-21.52,-112.4,-51.51,-31.14,-19.89,-65.52,31.37,-31.31,-27.15,-14.81,-39.72,-29.88,-33.88,0,0,0,0,0,0,0,0,0,0,0,0,0,0,0,0,
666,-32.85,-15.13,-39.41,-32.14,-107.6,-62.57,-29.57,-29.97,-36.21,14.36,-36.03,-31.21,-27.21,-56.38,-34.88,-49.34,0,0,0,0,0,0,0,0,0,0,0,0,0,0,0,0,
667,-44.07,-25.14,-37.75,-36.32,-96.54,-63.94,-43.3,-28.57,-24.65,13.26,-38.52,-37.51,-24.61,-51.66,-25.42,-42.64,0,0,0,0,0,0,0,0,0,0,0,0,0,0,0,0,
668,-47.98,-14.14,-48.58,3.959,-95.47,-58.9,-41.78,-24.99,-46.9,34.75,-33.24,-53.55,-24.82,-39.95,-36.96,-40.82,0,0,0,0,0,0,0,0,0,0,0,0,0,0,0,0,
669,-55.91,-4.287,-26.33,-15.62,-101.6,-68.73,-22.36,-38.17,-43.78,46.79,-21.62,-70.34,-26.04,-37.86,-42.16,-39.61,0,0,0,0,0,0,0,0,0,0,0,0,0,0,0,0,
670,-59.34,-8.883,-18.28,-70.77,-91.3,-60.87,-18.38,-46.32,-25.97,43.46,-24.49,-71.41,-16.2,-30.54,-24.68,-22.93,0,0,0,0,0,0,0,0,0,0,0,0,0,0,0,0,
671,-50.44,-10.88,-52.27,-29.27,-88.47,-40.74,-23.44,-36.83,-18.01,33.76,-29.95,-63.09,-6.998,-17.63,-14.44,-13.33,0,0,0,0,0,0,0,0,0,0,0,0,0,0,0,0,
672,-52.24,-9.53,-45.34,34.54,-107.3,-55.53,-30.83,-26.57,-13.38,38.9,-20.81,-56.55,-3.546,-14.28,-12.88,-15.13,0,0,0,0,0,0,0,0,0,0,0,0,0,0,0,0,
673,-63.67,-13.15,-6.896,2.696,-101.6,-68.33,-41.63,-21.6,-27.59,52.43,-19.66,-55.93,-8.381,-27.09,-18.84,-21.07,0,0,0,0,0,0,0,0,0,0,0,0,0,0,0,0,
674,-64.94,-12.95,-3.283,-57.45,-81.49,-55.26,-23.02,-27.12,-44.8,30,-27.45,-63.31,-21.85,-45.46,-37.08,-33.63,0,0,0,0,0,0,0,0,0,0,0,0,0,0,0,0,
675,-72.64,-9.114,-0.2332,-53.82,-87.52,-66.34,0.4784,-46.44,-42.94,8.909,-23.49,-72.11,-28.1,-48.09,-46.35,-45.07,0,0,0,0,0,0,0,0,0,0,0,0,0,0,0,0,
676,-82.97,-16.14,4.062,2.351,-92.28,-76.57,-13.5,-51.59,-57.21,36.26,-20.69,-71.44,-27.97,-41.41,-41.96,-56.69,0,0,0,0,0,0,0,0,0,0,0,0,0,0,0,0,
677,-66.03,-24.76,-32.71,26.42,-95.65,-55.39,-18.93,-27.97,-73.37,48.09,-20.67,-58.84,-34.77,-46.54,-32.74,-65.23,0,0,0,0,0,0,0,0,0,0,0,0,0,0,0,0,
678,-54.32,-26.54,-53.1,-33.07,-100,-50.03,-2.668,-12.8,-46.92,22.58,-11.17,-51.74,-47.27,-57.93,-21.05,-63.68,0,0,0,0,0,0,0,0,0,0,0,0,0,0,0,0,
679,-74.2,-37.73,-25.41,-58.92,-77.03,-49.98,-1.336,-18.55,-50.4,15.24,-20.06,-67.05,-60.5,-64.91,-24.07,-66.97,0,0,0,0,0,0,0,0,0,0,0,0,0,0,0,0,
680,-88.07,-41.75,-42.13,17.82,-115.3,-46.91,2.679,-16.19,-119.2,27.54,-48.42,-81.02,-56.29,-58.19,-32.3,-60.11,0,0,0,0,0,0,0,0,0,0,0,0,0,0,0,0,
681,-88.54,-12.45,-98.71,18.03,-209,-75.88,19.49,-11.23,-120.4,40.68,-45.84,-62.87,-22.13,-30.34,-15.83,-21.13,0,0,0,0,0,0,0,0,0,0,0,0,0,0,0,0,
682,-80.58,16.36,-60.9,-70.63,-150.9,-73.46,31.47,-20.73,-32.57,51.79,-27.6,-38.51,2.236,-10.17,-3.06,3.859,0,0,0,0,0,0,0,0,0,0,0,0,0,0,0,0,
683,-53.34,14.36,34.17,-44.18,-1.721,-13.74,28.76,-40.91,-0.9822,47.5,-46.29,-46.72,-12.74,-21.3,-24.79,-11.33,0,0,0,0,0,0,0,0,0,0,0,0,0,0,0,0,
684,-38.43,2.92,37.17,0.0947,19.26,14.69,-1.847,-72.21,-23.63,30.29,-63.06,-57.87,-24.56,-32.26,-36.39,-14.83,0,0,0,0,0,0,0,0,0,0,0,0,0,0,0,0,
685,-38.77,-1.334,0.0349,-63.7,17.72,18.06,-29.77,-99.7,-3.939,17.12,-33.83,-34.13,-8.157,-23.25,-8.453,7.457,0,0,0,0,0,0,0,0,0,0,0,0,0,0,0,0,
686,-13.63,-2.161,24.74,-35.19,104.9,37.49,-24.51,-112.9,30.03,11.48,-5.717,-13.51,-3.327,-24.83,14.2,7.074,0,0,0,0,0,0,0,0,0,0,0,0,0,0,0,0,
687,13.12,-1.959,68.31,80.86,159,42.06,-20.77,-124.2,39.72,2.647,-0.9501,-19.99,-18.08,-46.94,7.797,-17.56,0,0,0,0,0,0,0,0,0,0,0,0,0,0,0,0,
688,17.62,7.052,87.62,74.94,158.2,53.65,-16.16,-124.9,48.96,-7.727,13.01,-15.31,-13.47,-56.16,-1.337,-27.79,0,0,0,0,0,0,0,0,0,0,0,0,0,0,0,0,
689,35.81,35.56,79.4,19.08,164.4,94.07,18.23,-112.7,55.27,0.7589,22.9,-1.588,8.92,-43.66,-9.338,-27.2,0,0,0,0,0,0,0,0,0,0,0,0,0,0,0,0,
690,66.7,67.46,75.62,15.68,168.2,111.6,46.23,-103.3,52.91,21.4,15.01,2.416,25.23,-33.05,-13.77,-22.33,0,0,0,0,0,0,0,0,0,0,0,0,0,0,0,0,
691,91.74,89.11,123.3,30.66,186.3,111.1,58.04,-87.63,74.19,34.76,35.99,25.57,48.44,-18.81,22.49,13.61,0,0,0,0,0,0,0,0,0,0,0,0,0,0,0,0,
692,129.4,122.6,154.2,80.92,228.7,139.8,94.24,-59.05,139.6,51.77,96.93,65.21,86.14,17.16,92.93,70.86,0,0,0,0,0,0,0,0,0,0,0,0,0,0,0,0,
693,161.7,158.7,120.3,108,245.7,175.2,135,-33.29,188.9,72.6,136.2,84.75,112.1,50.25,132.7,101.7,0,0,0,0,0,0,0,0,0,0,0,0,0,0,0,0,
694,148.5,157.4,107.6,57.02,219.9,168.9,128.3,-34.44,143,70.53,114.7,77.94,104,46.27,113.7,87.9,0,0,0,0,0,0,0,0,0,0,0,0,0,0,0,0,
695,106.6,123.3,121.4,36.75,178.6,122.3,81.66,-65.86,62.51,36.22,58.99,47.42,65.93,14.84,67.94,48.77,0,0,0,0,0,0,0,0,0,0,0,0,0,0,0,0,
696,66.58,82.87,102.3,73.61,147.6,83.76,44.16,-81.46,50.45,4.095,18.2,11.99,30.96,-9.184,38.76,21.13,0,0,0,0,0,0,0,0,0,0,0,0,0,0,0,0,
697,41.35,54.33,82.36,79.61,142.1,86.96,37.74,-68.56,63.97,10.33,10.9,2.869,25.25,-14.85,42.49,28.47,0,0,0,0,0,0,0,0,0,0,0,0,0,0,0,0,
698,39.73,45.49,76.9,44.89,148.8,99.11,41.03,-74.37,55.05,18.37,17.88,7.433,32.49,-15.42,61.58,55.2,0,0,0,0,0,0,0,0,0,0,0,0,0,0,0,0,
699,44.46,37.35,58.88,19.2,148.5,93.97,40.11,-92.5,62.96,-4.369,27.6,4.659,43.6,-8.35,79.49,78.1,0,0,0,0,0,0,0,0,0,0,0,0,0,0,0,0,
700,45.1,37.47,64.94,27,150.3,99.87,44.76,-87.55,70.91,-5.448,37.2,4.419,65.34,9.597,94.47,91.41,0,0,0,0,0,0,0,0,0,0,0,0,0,0,0,0,
701,52.22,67.1,95.77,34.08,150,111.9,50.91,-72.98,61.65,15.83,34.31,11.55,77.84,18.29,103.9,96.94,0,0,0,0,0,0,0,0,0,0,0,0,0,0,0,0,
702,52.71,89.37,73.66,39.27,137.8,106.4,56.35,-60.1,74.11,6.708,31.44,23.71,81.88,20.83,112.2,99.58,0,0,0,0,0,0,0,0,0,0,0,0,0,0,0,0,
703,55.17,94.98,45.21,74.36,142.2,107.2,83.83,-41.18,70.49,3.887,34.22,28.27,96.96,31.5,113.8,93.47,0,0,0,0,0,0,0,0,0,0,0,0,0,0,0,0,
704,77.78,118,104.8,78.9,166.2,120.4,125.9,-18.7,31.74,29.67,22.11,8.706,99.9,28.7,91.25,71.69,0,0,0,0,0,0,0,0,0,0,0,0,0,0,0,0,
705,80.39,130.8,154.6,60.81,172.4,129,135.4,-3.982,43.95,33.3,23.2,-6.501,84.19,13.17,66.54,52.93,0,0,0,0,0,0,0,0,0,0,0,0,0,0,0,0,
706,57.82,113.1,119.6,94.57,159.5,131.7,110.3,-8.409,87.34,27.04,49.68,1.378,74.7,13.6,63.12,42.43,0,0,0,0,0,0,0,0,0,0,0,0,0,0,0,0,
707,50.17,97.04,84.98,81.4,143.3,114.9,88.02,-19.88,66.53,34.76,43.41,-6.451,60.99,13.66,54.25,22.28,0,0,0,0,0,0,0,0,0,0,0,0,0,0,0,0,
708,39.15,81.81,60.87,6.594,125,85.53,62.63,-23.23,24.91,25.83,14.42,-23.6,45.31,-0.1986,36.28,11.29,0,0,0,0,0,0,0,0,0,0,0,0,0,0,0,0,
709,17.82,61.37,36.47,21.8,108.7,67.36,27.85,-27.75,34.98,12.19,16.48,-7.334,53.68,1.507,34.27,25.97,0,0,0,0,0,0,0,0,0,0,0,0,0,0,0,0,
710,18.05,51.76,45.03,48.96,99.67,52.69,17.11,-29.52,49.55,17.42,29.21,16.84,66.59,15.47,37.31,32.97,0,0,0,0,0,0,0,0,0,0,0,0,0,0,0,0,
711,21.64,48.07,26.1,-22.2,96.26,49.37,22.64,-27.12,24.57,20.08,38.11,17.89,64.53,13.78,41.32,27.31,0,0,0,0,0,0,0,0,0,0,0,0,0,0,0,0,
712,11.59,40.03,-20.44,-43.83,86.61,59.21,13.62,-41.11,19.08,14.23,56.19,18.88,62.41,7.099,60.2,36.69,0,0,0,0,0,0,0,0,0,0,0,0,0,0,0,0,
713,10.54,23.28,-12.91,17.07,79.99,50.21,6.135,-55.29,54.74,0.9586,64.43,34.78,58.06,8.223,73.75,50.58,0,0,0,0,0,0,0,0,0,0,0,0,0,0,0,0,
714,19.26,4.798,10.55,19,99.29,36.55,7.175,-45.32,62.1,-16.73,60.98,56.09,52.5,9.636,71.33,55.13,0,0,0,0,0,0,0,0,0,0,0,0,0,0,0,0,
715,33.65,14.85,21.48,-0.7822,117.9,49.35,7.966,-30.5,59.33,-3.356,63.86,74.63,67.77,18.14,78.76,61.04,0,0,0,0,0,0,0,0,0,0,0,0,0,0,0,0,
716,61.86,53.51,47.47,33.82,119.9,78.92,22.73,-21.95,78.13,33.84,69.36,91.67,91.37,32.34,99.82,67.57,0,0,0,0,0,0,0,0,0,0,0,0,0,0,0,0,
717,90.58,81.31,50.9,43.24,137.2,107.5,40.77,-18.79,49.53,44.93,77.16,107.3,96.28,33.56,112.9,70.98,0,0,0,0,0,0,0,0,0,0,0,0,0,0,0,0,
718,102.7,86.12,37.21,26.81,151.1,112.7,42.81,-29.51,31.53,41.37,83.8,108.5,97.53,33.67,109,74.01,0,0,0,0,0,0,0,0,0,0,0,0,0,0,0,0,
719,96.38,81.78,35.15,31.52,134.8,92.75,44.47,-42.65,97.39,50.52,73.75,99.98,105.6,46.63,98.45,71.18,0,0,0,0,0,0,0,0,0,0,0,0,0,0,0,0,
720,79.56,72.99,17.18,-18.02,128.5,78.83,49.69,-48.17,117.7,52.85,61.7,103.4,101.9,51.18,99.62,60.4,0,0,0,0,0,0,0,0,0,0,0,0,0,0,0,0,
721,71.41,65,12.74,-67.85,143.4,78.37,49.04,-43.77,75.37,47.44,65.3,109.1,90.9,43.75,106.7,48.5,0,0,0,0,0,0,0,0,0,0,0,0,0,0,0,0,
722,70.66,57.23,38.17,12.48,141.6,77.53,40.33,-23.51,70.17,50.26,58.37,95.39,84.04,40.96,92.8,38,0,0,0,0,0,0,0,0,0,0,0,0,0,0,0,0,
723,58.26,42.9,38.66,90.21,127.2,70.31,21.98,-14.87,56.67,50.05,39.53,74.24,78.54,38.85,73.26,30.72,0,0,0,0,0,0,0,0,0,0,0,0,0,0,0,0,
724,52.48,37.48,23.61,51.45,129,62.4,13.65,-28.64,33.88,40.33,50.3,73.54,79.99,29.86,84.33,30.07,0,0,0,0,0,0,0,0,0,0,0,0,0,0,0,0,
725,62.3,43.93,9.848,25.34,133.5,63.63,22.87,-23.89,63.67,32.08,76.04,90.13,77.2,13.84,102.2,27.05,0,0,0,0,0,0,0,0,0,0,0,0,0,0,0,0,
726,53.47,37.55,-9.171,36.75,121.6,60.81,20.51,-7.422,90.03,29.64,72.71,95.76,64.53,1.877,90.01,12.06,0,0,0,0,0,0,0,0,0,0,0,0,0,0,0,0,
727,34.52,30.47,4.823,3.913,112.1,44.8,4.108,-15.26,73.03,25.78,54.58,86.62,68.29,9.572,67.84,-0.6961,0,0,0,0,0,0,0,0,0,0,0,0,0,0,0,0,
728,32.65,39.86,22.34,-11.01,114.6,33.93,-7.742,-21.89,56.41,23.79,50.73,79.7,78.34,20.26,65.09,2.071,0,0,0,0,0,0,0,0,0,0,0,0,0,0,0,0,
729,32.12,39.67,-6.403,29.19,117,30.3,-16.26,-8.717,68.99,40.08,60.99,78.14,72.12,16.21,76.12,8.742,0,0,0,0,0,0,0,0,0,0,0,0,0,0,0,0,
730,32.38,24.4,-34.83,16.03,108.8,23.12,-24.06,-10.43,82.66,46.85,65.19,71.05,64.01,11.74,74.51,8.359,0,0,0,0,0,0,0,0,0,0,0,0,0,0,0,0,
731,33.69,9.414,-48.78,-52.05,86.28,15.11,-33.78,-29.86,60.97,12.57,51.25,55.24,53.95,11.59,55.48,3.459,0,0,0,0,0,0,0,0,0,0,0,0,0,0,0,0,
732,21.17,-2.295,-52.22,-48.9,80.01,10.9,-41.13,-33.6,41.23,-5.657,44.63,53.57,45.89,10.62,51.74,-1.899,0,0,0,0,0,0,0,0,0,0,0,0,0,0,0,0,
733,21.42,3.093,-24.16,6.529,100.3,11.27,-35.89,-32.68,46.48,18.87,47.86,68.2,53.26,8.11,64.91,-6.154,0,0,0,0,0,0,0,0,0,0,0,0,0,0,0,0,
734,36.99,16.88,-21.44,5.422,97.3,8.516,-42.65,-48.35,44.26,18.29,31.52,59.16,50.2,-0.9417,58.94,-9.639,0,0,0,0,0,0,0,0,0,0,0,0,0,0,0,0,
735,24.64,4.695,-68.34,-38.36,66.35,-11.38,-82.12,-61.02,38.78,-9.775,8.807,25.94,30.89,-9.062,35.19,-14.34,0,0,0,0,0,0,0,0,0,0,0,0,0,0,0,0,
736,-10.76,-25.65,-105.8,-64.56,39.82,-47.32,-119.9,-77.78,16.69,-19.08,-9.314,-1.734,19.97,-12.01,16.18,-21.25,0,0,0,0,0,0,0,0,0,0,0,0,0,0,0,0,
737,-39.96,-39.88,-114.7,-61.42,17.29,-72.22,-129.5,-106.5,-17.83,-25.27,-27.86,-20.16,11.62,-19.31,11.03,-22.21,0,0,0,0,0,0,0,0,0,0,0,0,0,0,0,0,
738,-52.26,-34.85,-83.69,-49.24,13.63,-67.61,-126.2,-102.6,-7.694,-33.1,-23.9,-20.19,4.069,-24.58,16.86,-12.56,0,0,0,0,0,0,0,0,0,0,0,0,0,0,0,0,
739,-40.98,-29.81,-39.06,-50.1,32.41,-55.03,-115.1,-85.07,3.787,-26.9,-15.66,-13.66,4.431,-24.65,9.172,-10.21,0,0,0,0,0,0,0,0,0,0,0,0,0,0,0,0,
740,-26.23,-29.43,-50.83,-55.88,43.3,-50.63,-100.3,-108.3,-23.54,-25.91,-28.49,-28.38,-0.118,-30.06,-9.794,-19.14,0,0,0,0,0,0,0,0,0,0,0,0,0,0,0,0,
741,-29.42,-31.51,-77.59,-73,45.71,-49.98,-111.5,-123.4,-26.97,-32.95,-23.88,-34.34,-5.986,-37.32,-8.492,-16.67,0,0,0,0,0,0,0,0,0,0,0,0,0,0,0,0,
742,-35.34,-42.42,-56.55,-76.98,43.61,-59.82,-140.2,-95.97,-15.13,-38.34,-8.709,-16.61,-3.661,-41.34,0.2214,-7.9,0,0,0,0,0,0,0,0,0,0,0,0,0,0,0,0,
743,-33.12,-49.19,-40.65,-21.12,30.76,-62.29,-137.4,-78.66,-21.49,-52.99,-19.93,-10.27,-4.739,-43.88,-1.102,-9.19,0,0,0,0,0,0,0,0,0,0,0,0,0,0,0,0,
744,-30.15,-38.58,-66.56,0.493,20.93,-40.17,-111.3,-85.3,-26.4,-58.91,-21.94,-6.858,-5.077,-40.02,5.668,-2.95,0,0,0,0,0,0,0,0,0,0,0,0,0,0,0,0,
745,-24.56,-25.34,-90.35,-51.93,20.62,-36.09,-99.71,-94.77,-35.2,-39.4,-1.699,7.251,7.681,-28.75,15.28,15.97,0,0,0,0,0,0,0,0,0,0,0,0,0,0,0,0,
746,-15.12,-12.65,-82.84,-54.46,23.15,-64.7,-91.09,-100.9,-40.1,-33.66,1.061,7.423,16.49,-23.74,14.81,25.7,0,0,0,0,0,0,0,0,0,0,0,0,0,0,0,0,
747,-8.868,-0.8548,-64.7,-30.99,23.27,-77.13,-74.91,-92.17,-42.61,-48.96,-8.68,2.274,11.45,-33.41,17.14,26.82,0,0,0,0,0,0,0,0,0,0,0,0,0,0,0,0,
748,-0.4636,0.3575,-46.59,-43.21,23.2,-55.48,-63.51,-82.72,-65.33,-40.89,-10.24,11.55,7.309,-42.2,16.58,23.69,0,0,0,0,0,0,0,0,0,0,0,0,0,0,0,0,
749,14.48,-0.7202,-23.67,-34.46,31.34,-26.56,-55.16,-102.6,-56.37,-24.71,-7.178,13.87,-2.414,-42.95,-2.829,5.57,0,0,0,0,0,0,0,0,0,0,0,0,0,0,0,0,
750,19.17,-5.808,-21.98,-29.05,37.14,-20.71,-55.9,-128.1,-5.704,-35.62,-0.2444,0.5138,-20.68,-50.69,-23.45,-10.51,0,0,0,0,0,0,0,0,0,0,0,0,0,0,0,0,
751,8.364,-13.09,-34.71,-10.18,32.09,-42.72,-70.12,-114.9,2.294,-41.14,-0.6882,-5.362,-18.48,-56.17,-21.02,-2.908,0,0,0,0,0,0,0,0,0,0,0,0,0,0,0,0,
752,1.39,-1.178,-23.73,52.99,30.2,-54.13,-73.52,-82.03,-25.87,-27.03,-9.237,3.511,-2.729,-46.01,0.3528,8.415,0,0,0,0,0,0,0,0,0,0,0,0,0,0,0,0,
753,8.037,9.278,-15.2,34.2,33.59,-32.93,-61.72,-76.89,-25.47,-27.19,1.756,15.75,-6.106,-42.82,15.78,9.104,0,0,0,0,0,0,0,0,0,0,0,0,0,0,0,0,
754,16.31,-3.534,-31.25,-19.57,31.87,-14.74,-58.59,-95.81,-14.79,-41.36,16.02,21.35,-16.32,-53.23,4.186,12.22,0,0,0,0,0,0,0,0,0,0,0,0,0,0,0,0,
755,12.61,-10.33,-49.26,17.24,22.91,-17.49,-59.31,-112.8,-22.05,-46.79,-0.4996,17.15,-16.14,-56.38,-17.61,17.96,0,0,0,0,0,0,0,0,0,0,0,0,0,0,0,0,
756,4.104,-1.839,-50.58,12.39,20.31,-16.07,-47.87,-113.1,-24.17,-38.98,-15.85,9.512,-14.92,-48.43,-16.44,20.87,0,0,0,0,0,0,0,0,0,0,0,0,0,0,0,0,
757,-1.093,2.122,-16.94,-45.27,34.53,-15.91,-41.42,-87.69,-15.05,-26.97,-6.975,-1.154,-14.17,-35.56,-5.644,22.01,0,0,0,0,0,0,0,0,0,0,0,0,0,0,0,0,
758,-8.348,-0.4076,3.921,-14.5,39.1,-33.41,-47.34,-73.14,-25,-25.88,-4.12,-13.47,-10.85,-26.73,-8.829,19.35,0,0,0,0,0,0,0,0,0,0,0,0,0,0,0,0,
759,-4.994,-2.526,-38.45,29.21,22.86,-37.47,-48.19,-96.43,-47.85,-38.28,-10.1,-11.19,-5.878,-32.3,-9.551,18.02,0,0,0,0,0,0,0,0,0,0,0,0,0,0,0,0,
760,9.364,-3.264,-52.42,26.72,21.7,-13.86,-53.08,-105.1,-27.18,-56.72,-0.7685,4.413,1.713,-42.97,1.931,21.88,0,0,0,0,0,0,0,0,0,0,0,0,0,0,0,0,
761,9.649,-0.493,5.46,32.01,36.66,8.578,-61.49,-85.75,25.2,-68.46,24.79,21.77,12.55,-43.36,17.11,25.23,0,0,0,0,0,0,0,0,0,0,0,0,0,0,0,0,
762,9.982,13.84,23.33,8.639,37.33,16.97,-43.82,-85.08,11.22,-58.28,34.16,33.59,21.44,-40.29,23.48,23.55,0,0,0,0,0,0,0,0,0,0,0,0,0,0,0,0,
763,22.53,28.56,-11.34,-19.43,34.12,11.56,-22.94,-90.61,-55.93,-43.23,4.292,16.42,12.93,-49.64,1.388,11.94,0,0,0,0,0,0,0,0,0,0,0,0,0,0,0,0,
764,19.77,17.17,-0.4498,9.654,40.01,1.819,-38.29,-82.45,-41.78,-47.79,-17.82,-12.67,-10.09,-61.71,-27.47,-3.139,0,0,0,0,0,0,0,0,0,0,0,0,0,0,0,0,
765,4.379,-9.368,30.73,20.38,34.78,1.952,-62.13,-87.04,31.82,-58.06,-2.902,-8.416,-24.23,-59.02,-27.11,-9.214,0,0,0,0,0,0,0,0,0,0,0,0,0,0,0,0,
766,-7.278,-27.18,2.972,-19.08,22.1,-2.093,-66.72,-101.6,23.13,-59.96,-1.425,0.8437,-32.68,-57.61,-20.64,-14.7,0,0,0,0,0,0,0,0,0,0,0,0,0,0,0,0,
767,-17.93,-42.15,-34.98,-34.25,26.4,-11.79,-69.09,-100.3,-24.79,-55.55,-9.905,-9.022,-39.45,-61.6,-21.34,-20.91,0,0,0,0,0,0,0,0,0,0,0,0,0,0,0,0,
768,-17.8,-47.24,-22.96,2.663,34.73,-5.684,-70.73,-85.61,-5.291,-41.58,9.459,-2.764,-22.44,-44.21,-3.716,-9.296,0,0,0,0,0,0,0,0,0,0,0,0,0,0,0,0,
769,-3.8,-23.14,-2.175,46.06,32.27,2.69,-55.83,-71.77,16.75,-24.74,17.6,6.441,6.177,-22.95,14.11,12.43,0,0,0,0,0,0,0,0,0,0,0,0,0,0,0,0,
770,6.064,9.2,-5.305,12.57,28.26,-8.15,-41.33,-64.61,-7.587,-19.67,-0.1952,-7.217,14.22,-28.36,6.295,20.36,0,0,0,0,0,0,0,0,0,0,0,0,0,0,0,0,
771,2.512,19.23,-23.54,-62.46,17.52,-19.82,-44.38,-67.06,-14.97,-20.99,-4.285,-17.02,13.47,-37.44,0.49,21.34,0,0,0,0,0,0,0,0,0,0,0,0,0,0,0,0,
772,-1.748,16.07,-33.99,-27.74,10.12,-5.783,-36.17,-77.6,-0.9099,-14.02,1.554,-13.48,20.17,-36.27,9.35,30.64,0,0,0,0,0,0,0,0,0,0,0,0,0,0,0,0,
773,3.439,10.26,-7.743,56.54,22.29,12.09,-16.77,-85.23,-8.089,-13.02,-3.949,-5.102,22.34,-38.67,3.378,33.89,0,0,0,0,0,0,0,0,0,0,0,0,0,0,0,0,
774,2.795,-3.63,22.62,30.47,23.77,-5.427,-30.43,-82.11,-23.01,-30.53,-17.29,8.312,17.9,-40.05,-14.32,21.87,0,0,0,0,0,0,0,0,0,0,0,0,0,0,0,0,
775,-1.587,-8.848,22.82,-18.79,9.683,-23.79,-51.79,-67.91,-9.282,-34.88,-19.29,18.13,14.9,-38.94,-12.84,15.38,0,0,0,0,0,0,0,0,0,0,0,0,0,0,0,0,
776,9.522,-1.344,23.26,-2.177,17.12,-0.5435,-36.35,-48.22,10.74,-24.55,-0.7918,24.66,13.25,-44.02,-3.241,16.59,0,0,0,0,0,0,0,0,0,0,0,0,0,0,0,0,
777,22.34,-3.154,27.02,4.604,40.69,21.69,-21.86,-42.12,-12.31,-37.61,8.469,29.45,12.91,-51.87,-1.837,10.96,0,0,0,0,0,0,0,0,0,0,0,0,0,0,0,0,
778,29.25,-2.166,27.18,9.443,54.67,21.07,-25.94,-49.8,-29.52,-50.89,2.317,30.24,11.53,-59.55,9.379,9.592,0,0,0,0,0,0,0,0,0,0,0,0,0,0,0,0,
779,33.22,3.532,34.93,38.58,51.8,22.64,-19.12,-48.25,4.366,-36.14,8.407,36.33,6.384,-67.43,18.64,14.28,0,0,0,0,0,0,0,0,0,0,0,0,0,0,0,0,
780,16.01,-14.7,28.47,33.34,32.18,10.83,-18.57,-47.74,1.206,-29.4,3.128,34.58,0.8794,-70.06,1.44,8.953,0,0,0,0,0,0,0,0,0,0,0,0,0,0,0,0,
781,-11.05,-33.05,3.724,-0.3484,12.04,-13.96,-35.78,-59.21,-36.12,-35.15,-28.08,12.71,-3.951,-64.1,-15.13,0.9043,0,0,0,0,0,0,0,0,0,0,0,0,0,0,0,0,
782,-21.75,-25.91,-21.86,-30.67,11.76,-19.09,-41.29,-56.83,-4.296,-23.42,-37.73,1.501,-2.927,-57.33,-9.676,-1.174,0,0,0,0,0,0,0,0,0,0,0,0,0,0,0,0,
783,-16.42,-19.59,-36.17,-52.64,29.13,-13.52,-38.85,-47.88,31.82,-10.16,-20.72,11.37,10.42,-55.95,4.956,4.975,0,0,0,0,0,0,0,0,0,0,0,0,0,0,0,0,
784,3.182,-17.66,-24.22,-46.32,38.63,-5.5,-39.07,-58.06,3.524,-12.45,-11.09,20.84,22.92,-48.55,22.94,23.06,0,0,0,0,0,0,0,0,0,0,0,0,0,0,0,0,
785,17.45,-14.29,-18.57,-46.7,31.91,8.425,-26.89,-63.2,-2.839,-9.157,-4.655,29.79,23.47,-33.38,32.47,29.66,0,0,0,0,0,0,0,0,0,0,0,0,0,0,0,0,
786,9.789,-22.98,-27.47,-66.34,34.56,-0.1279,-20.84,-45.37,22.56,-0.3899,2.957,35.59,22.52,-27.95,26.71,19.13,0,0,0,0,0,0,0,0,0,0,0,0,0,0,0,0,
787,1.866,-28.78,-7.777,-38.91,41.06,-21.14,-41.24,-28.25,24.65,-6.338,-5.654,25.41,23.05,-29.18,21.56,22.36,0,0,0,0,0,0,0,0,0,0,0,0,0,0,0,0,
788,-3.296,-22.2,1.383,-1.589,29,-13.42,-57.76,-24.49,15.24,-13.22,-32.01,6.397,14,-29.34,11.45,22.13,0,0,0,0,0,0,0,0,0,0,0,0,0,0,0,0,
789,-18.29,-31.48,-26.81,-30.04,20.6,-8.314,-63.16,-33.14,-0.2824,-15.46,-60.72,-11.79,-7.561,-42.01,-11.7,-8.576,0,0,0,0,0,0,0,0,0,0,0,0,0,0,0,0,
790,-36.25,-61.73,-33.13,-64.35,20.82,-40.89,-82.99,-49.4,-17.64,-38.33,-76.86,-25.76,-33.77,-65.92,-25.32,-33.7,0,0,0,0,0,0,0,0,0,0,0,0,0,0,0,0,
791,-57.14,-86.02,-20.45,-52.61,4.753,-73.11,-101.2,-53.42,-39.45,-61.52,-80.67,-29.73,-52.05,-84.45,-25.23,-35.31,0,0,0,0,0,0,0,0,0,0,0,0,0,0,0,0,
792,-69.48,-90.96,-18.61,-39.03,-14.23,-77.68,-97.25,-45.6,-81.06,-53.13,-81.69,-21.66,-51.45,-87.49,-21.92,-31.94,0,0,0,0,0,0,0,0,0,0,0,0,0,0,0,0,
793,-56.57,-79.75,-26.56,-66.5,-16.94,-65.68,-90.43,-44.8,-79.68,-42.71,-82.11,-7.96,-38.58,-72.03,-14.74,-20.31,0,0,0,0,0,0,0,0,0,0,0,0,0,0,0,0,
794,-47.11,-65.21,-53.85,-123.1,-19.26,-57.28,-89.72,-45.03,-34.15,-45.39,-93.5,-8.069,-34.73,-58.31,-17.88,-10.59,0,0,0,0,0,0,0,0,0,0,0,0,0,0,0,0,
795,-60.31,-63.63,-58.38,-122.1,-28.5,-64.24,-83.01,-44.97,-52.77,-37.54,-116,-17.64,-38.59,-60.33,-26.26,-16.94,0,0,0,0,0,0,0,0,0,0,0,0,0,0,0,0,
796,-60.77,-69.09,-15.51,-33.92,-21.97,-58.47,-76.51,-56.7,-88.92,-32.04,-114.7,-1.962,-31.15,-57.51,-16.85,-16.27,0,0,0,0,0,0,0,0,0,0,0,0,0,0,0,0,
797,-37.03,-66.45,3.264,15.99,0.0305,-34.1,-82.1,-62.77,-39.21,-45.34,-90.63,22.46,-20.26,-48.51,-11.34,-4.11,0,0,0,0,0,0,0,0,0,0,0,0,0,0,0,0,
798,-21.28,-56.74,-6.05,-15.08,7.701,-28.89,-78.44,-47.37,4.764,-49.27,-82.08,19.16,-16.57,-47.35,-14.45,0.4195,0,0,0,0,0,0,0,0,0,0,0,0,0,0,0,0,
799,-21.5,-46.63,4.837,-37.2,4.593,-32.07,-56.23,-32.35,-28.47,-36.36,-85.39,12.46,-14.88,-44.43,-2.598,-4.027,0,0,0,0,0,0,0,0,0,0,0,0,0,0,0,0,
800,-31.28,-54.78,-1.442,-62.28,-1.683,-28.58,-57.79,-40.74,-52.88,-33.72,-84.86,14.44,-23.85,-41.87,-2.151,-14.21,0,0,0,0,0,0,0,0,0,0,0,0,0,0,0,0,
801,-49.45,-78.32,-23.41,-101.4,-19.04,-40.27,-80.69,-58.14,-49.37,-33.87,-85.87,7.442,-33.4,-45.06,-12.17,-16.67,0,0,0,0,0,0,0,0,0,0,0,0,0,0,0,0,
802,-51.78,-76.9,-13.88,-79.87,-20.94,-52.75,-76.61,-58.98,-66.62,-33.13,-89.03,1.237,-25.61,-42.39,-2.905,-12.26,0,0,0,0,0,0,0,0,0,0,0,0,0,0,0,0,
803,-38.32,-68.13,-18.07,-54.38,-11.33,-48.33,-64.14,-55,-66.22,-56.89,-93.93,-2.87,-23.93,-39.01,-8.22,-24.6,0,0,0,0,0,0,0,0,0,0,0,0,0,0,0,0,
804,-36.42,-80.2,-26.14,-85.04,-17.98,-33.44,-59.37,-47.45,-31.34,-62.4,-84.4,-1.438,-20.56,-31.32,-18.2,-26.34,0,0,0,0,0,0,0,0,0,0,0,0,0,0,0,0,
805,-21.27,-60.06,29.67,-67.69,-2.654,-8.346,-32.06,-12.11,-15.03,-14.15,-44.5,22.8,15.26,-3.93,18.78,6.996,0,0,0,0,0,0,0,0,0,0,0,0,0,0,0,0,
806,23.9,-10.62,60.73,-2.218,42.14,20.03,-4.59,17.23,12.29,19.46,11.23,59.74,53.91,28.5,73.9,45.18,0,0,0,0,0,0,0,0,0,0,0,0,0,0,0,0,
807,63.25,15.42,24.1,13.24,70.38,55.64,4.796,14.84,73.54,27.46,73.3,106.7,79.58,55.47,123.8,88.84,0,0,0,0,0,0,0,0,0,0,0,0,0,0,0,0,
808,85.59,36.99,30.92,10.49,72.57,73.4,13.85,15.83,84.36,44.21,99.48,131.4,88.13,59.28,142.5,104.3,0,0,0,0,0,0,0,0,0,0,0,0,0,0,0,0,
809,68.52,27.8,34.17,-3.738,32.89,16.17,-8.184,5.572,32.91,14.82,28.91,67.58,29.67,3.09,63.95,21.51,0,0,0,0,0,0,0,0,0,0,0,0,0,0,0,0,
810,-13.91,-49.83,-35.81,-75.46,-33.75,-66.39,-61.97,-31.18,-32.01,-52.27,-74.88,-27.34,-58.85,-69.03,-47.36,-77.63,0,0,0,0,0,0,0,0,0,0,0,0,0,0,0,0,
811,-82.72,-102.6,-38.81,-110.1,-54.32,-87.58,-91.58,-46.93,-96.44,-72.66,-110.2,-55.84,-78.82,-81.64,-79.44,-88.26,0,0,0,0,0,0,0,0,0,0,0,0,0,0,0,0,
812,-69.23,-85.57,27.3,-53.96,-34.68,-69.45,-92.57,-33.12,-92.34,-59.85,-93.92,-47.45,-54.06,-57.91,-65.42,-67.25,0,0,0,0,0,0,0,0,0,0,0,0,0,0,0,0,
813,-32.91,-68.71,6.018,-33.85,-22.65,-44.98,-76.7,-13.56,-27.45,-46.88,-66.83,-32.43,-44.75,-41.88,-49.58,-59.11,0,0,0,0,0,0,0,0,0,0,0,0,0,0,0,0,
814,-21.87,-67.28,-36.78,-82.29,-11.8,-26.05,-56.13,-9.737,-30.92,-40.81,-43.8,-7.803,-44.21,-36.21,-30.7,-49.7,0,0,0,0,0,0,0,0,0,0,0,0,0,0,0,0,
815,-20.11,-70.19,0.3445,-84.89,-10.39,-43.14,-71.8,-33.72,-69.61,-68.03,-43.63,-7.731,-54.35,-45.54,-32.44,-64.07,0,0,0,0,0,0,0,0,0,0,0,0,0,0,0,0,
816,-28.44,-85.22,12.2,-43.83,-26.24,-66.25,-96.63,-37.17,-42.97,-84.25,-38.45,-17.29,-65.23,-51.54,-36.37,-86.22,0,0,0,0,0,0,0,0,0,0,0,0,0,0,0,0,
817,-39.41,-87.3,-27.16,-51.41,-28.98,-53.58,-81.46,-11.58,-19.57,-51.97,-18.28,-6.251,-51.57,-39.16,-21.41,-80.71,0,0,0,0,0,0,0,0,0,0,0,0,0,0,0,0,
818,-31.01,-76.17,-14.68,-64.61,-16.71,-40.89,-71.44,-11.96,-41.14,-38.08,-33.12,-4.268,-42.72,-35.84,-23.72,-73.29,0,0,0,0,0,0,0,0,0,0,0,0,0,0,0,0,
819,-18.03,-74.46,27.99,-17.1,-6.711,-44.29,-80.92,-4.474,-48.54,-50.95,-61.34,-5.9,-44.53,-34.92,-31.81,-64.49,0,0,0,0,0,0,0,0,0,0,0,0,0,0,0,0,
820,-10.6,-60.68,33.88,10.5,-1.93,-31.8,-55.5,38.27,-42.4,-42.23,-46,16.85,-21.03,-13.64,-10.09,-40.08,0,0,0,0,0,0,0,0,0,0,0,0,0,0,0,0,
821,5.349,-32.86,27.98,-16.95,-6.944,-17.75,-22.78,49.39,-36.29,-34.7,-23.84,36.16,-0.706,1.043,9.801,-35.38,0,0,0,0,0,0,0,0,0,0,0,0,0,0,0,0,
822,17.24,-24.72,27.23,-19.08,-10.45,-26.77,-32.86,32.51,-16.76,-39.66,-28.79,28.98,-8.044,1.668,5.184,-49.61,0,0,0,0,0,0,0,0,0,0,0,0,0,0,0,0,
823,12.54,-26.34,22.24,4.842,-3.466,-28.95,-45.37,32.46,-2.067,-35.14,-26.5,8.904,-6.336,6.386,-2.396,-46.66,0,0,0,0,0,0,0,0,0,0,0,0,0,0,0,0,
824,8.267,-16.62,27.41,14.32,-3.754,-13.17,-34.98,31.04,-5.619,-34.95,-18.79,-11.51,-1.387,3.275,-11.06,-41.93,0,0,0,0,0,0,0,0,0,0,0,0,0,0,0,0,
825,7.265,-14.21,30.3,-0.5089,-12.29,-11.95,-31.49,31.58,-33.11,-44.68,-37.46,-24.21,-12.67,-6.222,-22.93,-51.42,0,0,0,0,0,0,0,0,0,0,0,0,0,0,0,0,
826,3.679,-25.3,3.709,-60.22,-16.96,-19.97,-30.69,40.44,-68.58,-48.97,-58.87,-23.67,-13.94,-7.302,-20.67,-55.01,0,0,0,0,0,0,0,0,0,0,0,0,0,0,0,0,
827,10.2,-29.07,-16.66,-88.26,-19.38,-13.37,-23.2,34.33,-43.62,-44.73,-47.8,-13.68,-10.25,-8.271,-9.12,-53.06,0,0,0,0,0,0,0,0,0,0,0,0,0,0,0,0,
828,23.18,-25.9,-1.547,-15.36,-18.26,-12.98,-36.16,34.75,9.002,-47.88,-30.22,-9.453,-24.01,-12.46,-10.57,-56.44,0,0,0,0,0,0,0,0,0,0,0,0,0,0,0,0,
829,15.86,-32.38,0.4126,18.25,-18.12,-30.71,-59.5,43.15,-10.05,-72.35,-35.59,-20.35,-34.94,-19.53,-17.37,-58.28,0,0,0,0,0,0,0,0,0,0,0,0,0,0,0,0,
830,-5.236,-38.64,-14.51,-47.2,-19.15,-35.35,-51.44,30.63,-32.92,-77.51,-32.24,-29.15,-25.78,-24.44,-7.86,-52.4,0,0,0,0,0,0,0,0,0,0,0,0,0,0,0,0,
831,-5.236,-24.96,-5.7,-64.64,-11.56,-23.74,-29.81,35.1,-4.1,-45.28,-10.03,-24.79,-10.61,-16.12,6.844,-42.12,0,0,0,0,0,0,0,0,0,0,0,0,0,0,0,0,
832,6.942,-12.33,-18.83,-32.81,-13.07,-24.92,-31.25,56.29,-13.06,-41.21,-12.1,-22.01,-9.433,-16.31,4.614,-43.64,0,0,0,0,0,0,0,0,0,0,0,0,0,0,0,0,
833,3.102,-22.01,-51.08,-32.96,-22.38,-23.63,-36.39,43.04,-35.56,-61.68,-26.55,-21.99,-18,-30.22,-6.088,-58.95,0,0,0,0,0,0,0,0,0,0,0,0,0,0,0,0,
834,1.187,-23.13,-20.29,-16.04,-7.004,1.158,-33.26,38.01,-17.49,-52.07,-20.63,-19.27,-15.73,-26.84,-15.32,-63.69,0,0,0,0,0,0,0,0,0,0,0,0,0,0,0,0,
835,10.21,-5.993,22.63,-8.882,12.4,13.16,-41.92,64.06,-22.53,-47.5,-24.97,-24.53,-11.24,-21.74,-29.54,-62.33,0,0,0,0,0,0,0,0,0,0,0,0,0,0,0,0,
836,5.078,-6.043,11.18,-59.49,7.683,-0.9948,-53.85,63.83,-35.92,-61.4,-42.23,-28.15,-13.99,-31.48,-34.57,-66.41,0,0,0,0,0,0,0,0,0,0,0,0,0,0,0,0,
837,-5.606,-17.66,-1.418,-62.86,1.375,-7.311,-51.96,49.57,-19.4,-51.8,-33.3,-11.93,-7.401,-29.45,-19.86,-56.12,0,0,0,0,0,0,0,0,0,0,0,0,0,0,0,0,
838,2.451,-9.909,0.5737,-24.37,8.239,4.222,-33.4,51.52,-11.6,-35.24,-5.331,4.418,0.7513,-25.26,-12.51,-44.2,0,0,0,0,0,0,0,0,0,0,0,0,0,0,0,0,
839,19.67,7.113,1.861,-39.99,22.52,21.42,-8.27,56.12,0.8223,-33.11,15.96,2.763,-3.3,-35.28,-20.29,-51.28,0,0,0,0,0,0,0,0,0,0,0,0,0,0,0,0,
840,25.93,9.146,8.736,-34.02,32.05,23.6,-9.599,70.07,23.7,-34.03,20.94,6.867,-3.827,-34.07,-18.65,-47.63,0,0,0,0,0,0,0,0,0,0,0,0,0,0,0,0,
841,23.71,4.309,14.01,20.4,37.7,13.57,-21.58,80.05,25.94,-29.91,13.9,32.56,4.923,-16.26,-8.06,-26.9,0,0,0,0,0,0,0,0,0,0,0,0,0,0,0,0,
842,29.64,14.69,27.93,24.63,56.84,26.35,-4.112,74.07,27.49,-14.32,12.84,48.19,10.72,-4.505,-1.621,-16.6,0,0,0,0,0,0,0,0,0,0,0,0,0,0,0,0,
843,33.5,22.53,29.81,12.41,65.53,42.97,1.655,90.69,34.92,-12.98,16.78,30.89,5.561,-8.117,3.983,-17.5,0,0,0,0,0,0,0,0,0,0,0,0,0,0,0,0,
844,26.55,6.542,6.118,24.15,51.37,40.25,-13.22,117.7,41.74,-33.8,21.18,20.1,-0.3312,-8.729,8.313,-20.27,0,0,0,0,0,0,0,0,0,0,0,0,0,0,0,0,
845,39.45,2.382,13.03,4.247,54.07,48.33,6.227,105,55.2,-25.91,32.88,46.53,13.34,13.28,13.01,-15.94,0,0,0,0,0,0,0,0,0,0,0,0,0,0,0,0,
846,59.98,23.03,20.56,-11.03,58.34,50.2,27.67,79.74,60.57,3.019,35.67,70.97,29.7,29.77,25.04,-4.877,0,0,0,0,0,0,0,0,0,0,0,0,0,0,0,0,
847,43.55,30.96,-17.15,4.36,39.84,37.03,22.22,91.72,62.63,2.714,25.68,66.96,20.46,14.8,30.37,-11.12,0,0,0,0,0,0,0,0,0,0,0,0,0,0,0,0,
848,21.67,26.92,-13.77,0.4197,43.38,49.19,31.15,120.8,64.85,-9.354,27.9,61.54,5.55,-2.606,19.68,-31.65,0,0,0,0,0,0,0,0,0,0,0,0,0,0,0,0,
849,27.83,25.43,39.31,28.1,70.51,52.43,26.8,129,53.78,-11.93,33.11,58.83,1.45,-10.18,7.847,-43.26,0,0,0,0,0,0,0,0,0,0,0,0,0,0,0,0,
850,22.82,16.44,47.58,84.15,70.65,17.35,-12.52,122.8,34.81,-20.55,12.25,40.23,-6.627,-18.26,-4.759,-56.13,0,0,0,0,0,0,0,0,0,0,0,0,0,0,0,0,
851,-5.861,6.31,19.04,47.43,37.92,-8.562,-27.92,111.2,-2.826,-31.47,-20.13,21.63,-13.83,-13.14,-17.77,-72.12,0,0,0,0,0,0,0,0,0,0,0,0,0,0,0,0,
852,-25.01,-3.953,-8.897,-17.26,2.632,-15.58,-24.9,92.49,-25.45,-36.89,-28.8,18.29,-12.81,-3.897,-13.95,-71.61,0,0,0,0,0,0,0,0,0,0,0,0,0,0,0,0,
853,-36.57,-21.83,-50.01,-6.097,-9.981,-14.94,-41.35,90.68,13.43,-36.01,-21.99,12.58,-16.23,-10.42,-5.952,-63.79,0,0,0,0,0,0,0,0,0,0,0,0,0,0,0,0,
854,-56.98,-26.23,-66.7,-18.53,-6.361,-11.67,-49.44,110.4,21.77,-22.66,-29.8,5.081,-23.62,-14.73,-11.16,-63.68,0,0,0,0,0,0,0,0,0,0,0,0,0,0,0,0,
